BioWare Version 5.4.9.0 Export
Device:	ISO Leg Press (NEW) 9281CA (SN<616902)	ISO Leg Press (NEW) 9281CA (SN<616902)	ISO Leg Press (NEW) 9281CA (SN<616902)
Samples (#):	1500	1500	1500
Rate (Hz):	100.000000	100.000000	100.000000
Contact period start (sample #):	0	0	0
Contact period end (sample #):	1099	1099	1099
Contact period start time (s):	0.000000	0.000000	0.000000
Contact period end time (s):	10.990000	10.990000	10.990000
First sample time (s):	0.000000	0.000000	0.000000
Normalized force (N):	800.000000	800.000000	800.000000
Normalized length (m):	1.000000	1.000000	1.000000
File Information
Date	Oct 13, 2024  11:34:31
Name	
ID	
Classification	
Description	
abs time (s)	Fx	Fy	Fz
	N	N	N
0.000000	49.617073	2.016893	140.899266
0.010000	49.536764	2.096377	141.847014
0.020000	49.537104	2.298266	142.952889
0.030000	49.456793	2.619381	140.423913
0.040000	49.576408	2.981191	141.213706
0.050000	49.456116	3.263518	141.847669
0.060000	49.415110	3.706720	141.847341
0.070000	49.294308	3.787476	140.582858
0.080000	49.092346	4.028153	140.741474
0.090000	48.971540	3.948670	139.318532
0.100000	48.648436	3.586541	139.793066
0.110000	48.688591	3.627555	140.582861
0.120000	48.124727	3.345228	140.743275
0.130000	48.486629	2.979919	143.744158
0.140000	47.922766	2.338962	147.223994
0.150000	47.156769	1.740609	154.337699
0.160000	45.668329	1.214743	168.249183
0.170000	40.757738	1.136213	183.745661
0.180000	31.944672	0.610029	201.617897
0.190000	21.324472	0.527047	224.074368
0.200000	10.862346	1.090429	250.956959
0.210000	0.722306	4.506327	279.575779
0.220000	-11.950877	10.166211	315.619789
0.230000	-24.986300	14.742891	364.778458
0.240000	-35.205124	20.201523	420.574821
0.250000	-46.109459	21.805506	473.214127
0.260000	-60.071499	22.115808	518.112976
0.270000	-73.427311	25.318049	556.690880
0.280000	-83.446209	29.366953	588.153122
0.290000	-89.519249	31.125452	616.449142
0.300000	-92.172512	31.965755	641.426239
0.310000	-94.587402	36.057899	666.397430
0.320000	-96.194607	38.939345	687.892059
0.330000	-96.231030	37.769659	701.959534
0.340000	-91.363644	36.245796	704.170303
0.350000	-88.305096	35.761262	691.847900
0.360000	-85.287041	32.820356	653.602966
0.370000	-80.296314	28.082803	612.354675
0.380000	-84.239113	24.827461	570.789322
0.390000	-90.154251	21.860173	532.531921
0.400000	-90.956665	19.218132	507.380989
0.410000	-75.139530	18.073253	498.810280
0.420000	-41.619178	16.689922	499.866180
0.430000	-8.386870	17.992826	500.928810
0.440000	-2.794330	22.361255	488.589535
0.450000	-12.494027	21.296802	465.831234
0.460000	-20.903848	15.904615	441.500874
0.470000	-24.446631	12.367902	416.059574
0.480000	-26.498258	11.318396	400.890823
0.490000	-24.444424	9.752564	394.881840
0.500000	-17.041186	12.134857	398.191261
0.510000	-4.852747	17.214516	394.543476
0.520000	6.253384	19.073170	394.687351
0.530000	-0.985670	17.712725	397.685455
0.540000	-13.416396	14.544499	401.007504
0.550000	-20.576838	13.266401	400.695686
0.560000	-22.386007	13.744575	413.342178
0.570000	-17.393751	18.047832	434.989540
0.580000	-15.622019	21.585500	463.746338
0.590000	-20.971085	24.200520	496.931370
0.600000	-29.900371	26.489973	533.278179
0.610000	-37.497251	26.967192	568.679237
0.620000	-45.580571	26.277588	602.819073
0.630000	-52.458570	28.839828	640.914734
0.640000	-53.866363	32.457614	684.537506
0.650000	-57.608052	37.156698	728.319832
0.660000	-64.121944	40.605976	772.103676
0.670000	-73.616283	40.726475	820.313416
0.680000	-91.481647	39.022973	867.585770
0.690000	-108.020893	41.096544	906.158791
0.700000	-111.798489	43.855583	946.149643
0.710000	-112.039589	44.093715	976.973312
0.720000	-117.913719	40.323641	1001.639877
0.730000	-120.809784	42.897646	1023.933334
0.740000	-135.457508	49.960263	1052.555267
0.750000	-152.634472	49.590818	1083.548874
0.760000	-153.441303	48.095567	1096.357086
0.770000	-151.102654	47.926741	1120.699249
0.780000	-156.815830	48.558475	1144.097946
0.790000	-154.565296	52.895114	1155.481567
0.800000	-160.845558	58.042809	1156.283340
0.810000	-163.062729	59.891603	1158.983337
0.820000	-165.959633	57.987484	1151.255356
0.830000	-161.292351	53.929037	1141.938110
0.840000	-164.110481	54.887611	1128.194885
0.850000	-165.678726	56.976447	1116.666397
0.860000	-163.793312	60.954454	1109.395844
0.870000	-166.011162	63.243272	1103.701965
0.880000	-161.020271	59.463655	1092.319168
0.890000	-152.127403	53.474387	1079.349686
0.900000	-145.765808	49.499557	1078.707352
0.910000	-142.186436	49.550113	1075.694351
0.920000	-142.188309	54.213272	1077.112854
0.930000	-144.681461	55.549875	1083.119568
0.940000	-148.707291	55.876080	1094.028046
0.950000	-152.407131	52.698314	1106.357117
0.960000	-154.820148	48.641777	1112.997604
0.970000	-154.377598	49.119316	1119.166031
0.980000	-149.386524	50.324927	1120.588318
0.990000	-147.255104	52.416940	1119.006912
1.000000	-149.229130	53.020701	1123.430573
1.010000	-155.021935	51.492383	1131.805038
1.020000	-161.662567	48.716808	1139.549881
1.030000	-161.582260	47.550304	1147.290817
1.040000	-155.184765	46.509067	1150.920746
1.050000	-147.861160	47.594815	1154.077301
1.060000	-143.595421	49.850250	1153.756485
1.070000	-147.981113	51.623058	1149.961700
1.080000	-152.043354	54.590668	1146.797119
1.090000	-153.128555	55.591524	1143.004028
1.100000	-148.620872	55.709795	1135.729401
1.110000	-142.665066	55.426834	1128.771683
1.120000	-143.026295	54.705122	1126.086884
1.130000	-148.177639	56.552006	1130.673920
1.140000	-151.959316	58.320364	1132.573822
1.150000	-150.913937	58.489191	1127.045456
1.160000	-144.272278	57.128748	1122.460068
1.170000	-140.407066	55.161998	1118.824707
1.180000	-142.980705	52.714531	1114.399094
1.190000	-149.057137	52.395646	1115.983276
1.200000	-151.149258	53.166958	1112.350876
1.210000	-145.836781	54.259067	1112.036087
1.220000	-140.042450	53.546576	1109.510254
1.230000	-138.551121	51.100386	1105.251785
1.240000	-143.903240	49.421047	1105.102646
1.250000	-152.878967	48.740984	1102.428497
1.260000	-156.020206	47.505489	1094.694443
1.270000	-151.516594	47.232702	1080.633484
1.280000	-143.508484	46.960236	1071.469284
1.290000	-140.329643	45.079332	1065.779480
1.300000	-145.881691	43.838114	1066.414597
1.310000	-152.681248	43.757675	1068.631409
1.320000	-152.440319	44.241892	1067.686630
1.330000	-145.480824	44.567141	1062.155334
1.340000	-138.640259	43.604752	1052.513458
1.350000	-136.628963	42.715803	1044.137741
1.360000	-141.055656	41.862143	1037.974228
1.370000	-146.688011	41.171267	1033.864182
1.380000	-146.808479	40.523314	1026.594650
1.390000	-139.202423	40.404724	1018.531067
1.400000	-131.677368	40.890213	1011.102249
1.410000	-129.987469	41.378563	1008.890991
1.420000	-136.064079	41.664387	1007.633087
1.430000	-144.676201	41.426891	1006.692215
1.440000	-145.639744	40.703270	1001.796646
1.450000	-138.598743	40.783709	991.208694
1.460000	-130.551849	39.580004	978.409943
1.470000	-128.339264	38.973700	967.825073
1.480000	-134.619190	38.965115	958.509811
1.490000	-142.226254	38.072033	952.829697
1.500000	-142.468544	36.452148	946.198410
1.510000	-137.278057	34.232956	935.614502
1.520000	-128.869080	32.699553	926.291534
1.530000	-124.484749	32.657902	918.548935
1.540000	-126.982327	33.904529	907.647171
1.550000	-132.616375	35.633461	901.172989
1.560000	-134.828960	36.840981	894.851868
1.570000	-130.441402	36.483940	888.367706
1.580000	-123.599312	35.083435	879.513000
1.590000	-118.408653	33.762415	876.347473
1.600000	-117.242126	34.246313	872.706070
1.610000	-120.141083	34.972479	873.650864
1.620000	-122.877716	35.614389	876.965363
1.630000	-124.123531	34.890450	883.759064
1.640000	-122.189476	33.401240	891.816605
1.650000	-120.255093	32.196265	904.460342
1.660000	-123.354473	32.279882	923.741745
1.670000	-130.598282	33.453384	951.560776
1.680000	-140.336609	34.421818	989.024124
1.690000	-149.590698	35.106970	1038.187378
1.700000	-158.520485	37.434892	1099.524124
1.710000	-169.221848	41.555964	1163.712921
1.720000	-183.385506	44.914949	1219.060944
1.730000	-199.321068	49.278929	1270.458221
1.740000	-211.556793	53.409541	1312.370636
1.750000	-222.142952	57.101090	1343.219025
1.760000	-233.131165	59.299926	1367.112701
1.770000	-246.168785	60.163754	1389.266541
1.780000	-258.721336	60.432089	1418.368042
1.790000	-268.739388	62.068181	1446.042572
1.800000	-279.160332	65.754002	1476.876587
1.810000	-288.371552	72.092041	1509.920380
1.820000	-294.809723	76.987926	1543.594177
1.830000	-299.677109	80.918560	1577.740417
1.840000	-305.306564	83.160952	1611.571686
1.850000	-312.831284	84.802452	1638.767731
1.860000	-319.791977	87.765929	1662.172974
1.870000	-326.632034	90.409241	1677.994019
1.880000	-332.226089	92.331152	1684.964539
1.890000	-334.359558	93.651225	1688.614563
1.900000	-336.372726	93.766634	1685.626465
1.910000	-341.322632	92.717443	1689.753387
1.920000	-349.289734	91.548711	1698.935272
1.930000	-355.968491	92.625554	1710.329895
1.940000	-362.650116	92.543211	1719.669708
1.950000	-366.112091	90.778350	1730.112183
1.960000	-365.831177	89.295503	1734.230408
1.970000	-363.939316	87.014952	1733.445099
1.980000	-362.853775	84.616134	1731.393433
1.990000	-362.974243	83.822251	1733.923859
2.000000	-365.389297	84.593252	1738.506134
2.010000	-365.312378	86.486558	1743.084595
2.020000	-363.945770	88.325171	1747.817963
2.030000	-361.533432	89.634427	1752.549316
2.040000	-354.973450	89.096479	1759.650146
2.050000	-353.241180	87.644148	1762.807159
2.060000	-354.568848	87.969398	1761.068970
2.070000	-356.301605	91.356044	1762.333099
2.080000	-357.953552	93.823545	1768.180695
2.090000	-360.531082	94.721081	1777.347351
2.100000	-361.338257	94.527781	1791.572937
2.110000	-361.580719	92.561348	1804.059235
2.120000	-362.543747	91.868884	1823.184662
2.130000	-361.819611	89.497084	1843.734497
2.140000	-363.107437	89.820422	1858.121948
2.150000	-365.846802	93.640417	1872.034454
2.160000	-368.545135	95.851027	1877.571960
2.170000	-374.019592	98.418352	1880.582062
2.180000	-375.788269	98.645350	1886.115967
2.190000	-379.248367	97.671837	1887.073578
2.200000	-378.967789	94.008578	1882.490509
2.210000	-376.112396	93.519275	1870.313416
2.220000	-373.981644	92.198894	1866.502777
2.230000	-367.420975	92.328610	1871.688995
2.240000	-356.113556	93.343148	1881.453461
2.250000	-349.876511	93.384158	1883.166931
2.260000	-342.873123	91.491492	1882.350586
2.270000	-332.694626	87.917579	1875.996552
2.280000	-325.452530	85.026907	1863.953705
2.290000	-317.444077	83.381593	1847.632660
2.300000	-304.804764	81.589713	1824.500000
2.310000	-285.724228	83.066536	1776.205719
2.320000	-245.876671	85.091801	1722.460449
2.330000	-169.817543	87.608913	1707.382339
2.340000	-107.963421	87.128208	1688.089996
2.350000	-75.646852	84.561527	1648.310089
2.360000	-49.086342	86.004642	1616.132149
2.370000	-24.778223	85.992252	1596.134563
2.380000	-14.431129	83.636032	1572.208576
2.390000	-7.020931	81.146601	1554.298780
2.400000	13.104471	75.733437	1540.811461
2.410000	33.148887	71.835228	1531.599206
2.420000	45.709754	71.665449	1527.456421
2.430000	52.189605	69.335300	1529.806618
2.440000	50.255217	68.775734	1531.855671
2.450000	48.689524	71.695013	1542.126106
2.460000	47.442012	72.216429	1549.092808
2.470000	35.285068	74.143433	1551.812012
2.480000	24.258568	77.428020	1555.635774
2.490000	14.962622	79.473618	1563.886098
2.500000	2.406853	80.129202	1574.510506
2.510000	-13.043455	78.619652	1587.195774
2.520000	-26.237460	75.551901	1598.142651
2.530000	-28.928505	73.368963	1611.448814
2.540000	-37.777822	73.334946	1619.388283
2.550000	-51.660230	74.830834	1622.750504
2.560000	-65.143638	78.329077	1623.259811
2.570000	-73.916557	78.804388	1622.970543
2.580000	-83.375999	73.093630	1620.475357
2.590000	-95.613596	69.565811	1617.351883
2.600000	-107.368822	67.527840	1619.288315
2.610000	-117.916695	67.703014	1622.955597
2.620000	-125.606281	71.745878	1630.095627
2.630000	-132.855015	75.322014	1636.445663
2.640000	-139.293514	78.734734	1641.218613
2.650000	-142.712437	80.748856	1647.091431
2.660000	-151.523975	80.459530	1649.966583
2.670000	-163.434219	78.119205	1656.318573
2.680000	-175.025604	78.791954	1661.564102
2.690000	-184.406944	81.062328	1661.590179
2.700000	-190.043213	82.297821	1664.457306
2.710000	-193.828781	83.858246	1667.479309
2.720000	-198.136551	83.691647	1670.819366
2.730000	-205.261078	81.355774	1673.212677
2.740000	-215.001099	80.291004	1674.342926
2.750000	-223.775879	80.432480	1678.476776
2.760000	-230.660667	81.299484	1683.233826
2.770000	-233.278694	82.367105	1690.831726
2.780000	-234.086891	83.639481	1696.849731
2.790000	-235.697319	86.238598	1703.181946
2.800000	-238.757401	86.877012	1709.676758
2.810000	-245.761124	88.160196	1716.177460
2.820000	-252.400574	89.890085	1727.574036
2.830000	-257.431458	92.057768	1729.332916
2.840000	-261.856621	92.936859	1724.138458
2.850000	-265.680328	93.534576	1717.202026
2.860000	-267.209938	92.485384	1706.470581
2.870000	-270.872673	89.754641	1700.324890
2.880000	-274.696884	87.663578	1697.336975
2.890000	-280.131523	85.861521	1693.247406
2.900000	-286.488861	85.510845	1695.477173
2.910000	-287.534592	84.647337	1696.118500
2.920000	-285.317917	82.584576	1700.232819
2.930000	-285.437378	82.114994	1706.877075
2.940000	-286.120865	81.107452	1709.262329
2.950000	-288.254303	80.538029	1710.226807
2.960000	-292.401627	80.728786	1706.136566
2.970000	-299.769287	79.197926	1699.364502
2.980000	-307.537323	80.236620	1690.377563
2.990000	-312.246796	80.915730	1680.599091
3.000000	-315.869888	79.993399	1665.285767
3.010000	-321.184235	80.197195	1649.340149
3.020000	-325.371353	81.044178	1643.028412
3.030000	-327.748123	81.323324	1640.189697
3.040000	-329.962921	82.435457	1639.089355
3.050000	-330.686218	82.263771	1646.676361
3.060000	-329.961899	81.490232	1656.318817
3.070000	-330.725525	81.042574	1666.595154
3.080000	-333.261200	82.812525	1681.296753
3.090000	-336.965790	86.987013	1686.047943
3.100000	-339.785797	89.718716	1691.746277
3.110000	-342.968033	90.844206	1693.808014
3.120000	-343.534775	90.672518	1687.966827
3.130000	-343.817566	88.326149	1685.756866
3.140000	-345.144363	86.861414	1688.603882
3.150000	-347.076370	87.007664	1689.875092
3.160000	-352.831070	88.445995	1688.782227
3.170000	-358.426834	91.738220	1686.583862
3.180000	-359.796844	93.104702	1683.590210
3.190000	-363.137161	92.983892	1683.757477
3.200000	-364.824844	90.534519	1693.083435
3.210000	-364.539871	85.960066	1698.934113
3.220000	-365.222824	82.469767	1704.470703
3.230000	-365.706558	80.020718	1711.116272
3.240000	-365.748230	78.534052	1715.079803
3.250000	-370.497864	80.411137	1718.889618
3.260000	-376.815063	82.487248	1726.017120
3.270000	-382.850159	85.804264	1728.720734
3.280000	-387.517090	89.286288	1730.475616
3.290000	-391.382309	90.444842	1728.436218
3.300000	-394.847336	92.364534	1722.131165
3.310000	-400.039841	94.322062	1718.984756
3.320000	-405.996674	94.915010	1713.942047
3.330000	-409.094864	94.463859	1708.261917
3.340000	-412.070389	93.052537	1699.572235
3.350000	-410.700867	92.222415	1697.511810
3.360000	-403.337799	95.452003	1703.342133
3.370000	-397.947556	99.473254	1707.442017
3.380000	-396.942841	99.669419	1706.334503
3.390000	-396.020294	97.290624	1695.278900
3.400000	-395.094543	92.260566	1684.224548
3.410000	-396.985199	85.745749	1671.910721
3.420000	-398.311325	81.244740	1660.382202
3.430000	-397.266281	77.600881	1646.632111
3.440000	-394.291946	76.779665	1634.458969
3.450000	-389.989288	79.604519	1620.383133
3.460000	-387.456818	81.901927	1611.525360
3.470000	-387.011902	81.298162	1606.781189
3.480000	-386.522903	81.368749	1611.679733
3.490000	-385.512070	82.966689	1622.580353
3.500000	-385.309097	84.409475	1630.322586
3.510000	-381.850189	85.618268	1629.369934
3.520000	-379.800934	85.589655	1624.466324
3.530000	-380.488144	85.320369	1622.251633
3.540000	-382.702774	83.676958	1624.305099
3.550000	-386.564072	80.381560	1628.413940
3.560000	-390.063660	78.408770	1632.843018
3.570000	-390.343719	78.641499	1644.224564
3.580000	-389.498779	79.763804	1652.761505
3.590000	-388.493713	80.243569	1660.353058
3.600000	-390.182922	82.367062	1659.884262
3.610000	-394.688919	83.448042	1657.996124
3.620000	-399.760468	83.527203	1657.847031
3.630000	-402.900497	84.369737	1655.164993
3.640000	-403.585007	84.929302	1657.066376
3.650000	-400.929352	85.891691	1663.231323
3.660000	-397.628540	87.378992	1676.347031
3.670000	-394.085403	86.464608	1691.356384
3.680000	-389.014038	84.190421	1706.366348
3.690000	-381.691269	82.879578	1718.055573
3.700000	-378.594772	82.125119	1723.430878
3.710000	-379.280624	80.598395	1723.436005
3.720000	-381.978302	79.392784	1724.549438
3.730000	-385.357910	78.986779	1727.242859
3.740000	-387.609451	79.982234	1731.355637
3.750000	-388.495743	80.951303	1736.893112
3.760000	-389.422882	82.321923	1739.425827
3.770000	-390.672592	83.132977	1741.325119
3.780000	-391.480438	83.500516	1746.543137
3.790000	-393.411606	83.855642	1745.120834
3.800000	-395.342422	82.920280	1746.231155
3.810000	-393.772324	80.304302	1743.864883
3.820000	-394.495270	79.536807	1739.443222
3.830000	-396.668884	80.300804	1733.126648
3.840000	-398.078552	81.834523	1731.550720
3.850000	-401.740768	84.689901	1730.764481
3.860000	-405.242554	85.134058	1734.721649
3.870000	-407.094589	82.887853	1738.677444
3.880000	-408.298401	83.037592	1742.793427
3.890000	-410.752243	82.386138	1745.330734
3.900000	-413.166275	81.659020	1748.183151
3.910000	-415.219940	82.336862	1746.453888
3.920000	-417.876770	83.901104	1744.879486
3.930000	-418.641068	85.625580	1745.195358
3.940000	-418.563309	88.232012	1741.874481
3.950000	-419.973984	89.157204	1738.710724
3.960000	-420.779633	90.518602	1738.550018
3.970000	-420.297256	92.121635	1745.974197
3.980000	-416.351395	93.201021	1756.396439
3.990000	-412.363693	91.631693	1761.763367
4.000000	-409.784958	92.356908	1760.963562
4.010000	-408.051697	94.811682	1761.429901
4.020000	-408.895615	96.742823	1758.105011
4.030000	-410.463684	97.711891	1757.310211
4.040000	-410.579056	98.475573	1756.039307
4.050000	-407.313110	96.793062	1755.556763
4.060000	-402.797104	93.824817	1755.225601
4.070000	-396.105118	91.309950	1753.464996
4.080000	-386.555664	90.371729	1747.900375
4.090000	-376.203140	94.856535	1741.857697
4.100000	-365.571915	101.784037	1728.853256
4.110000	-352.770111	107.497021	1720.110229
4.120000	-336.950272	105.896530	1714.214996
4.130000	-325.074402	100.321537	1703.267212
4.140000	-317.262665	96.957148	1696.275269
4.150000	-309.292328	95.327103	1684.708801
4.160000	-303.537292	93.340012	1671.246429
4.170000	-297.505089	94.482677	1665.844696
4.180000	-290.387695	96.140396	1655.702454
4.190000	-277.592514	95.370354	1647.607544
4.200000	-267.611732	88.812614	1643.163116
4.210000	-267.770493	81.092823	1631.310516
4.220000	-270.463242	79.240213	1619.616516
4.230000	-271.508957	80.100550	1605.074799
4.240000	-271.914238	82.776623	1587.055756
4.250000	-266.604309	87.432159	1570.602356
4.260000	-256.147621	88.077259	1567.100769
4.270000	-249.111702	84.248371	1577.352661
4.280000	-245.816650	74.163458	1600.571564
4.290000	-248.353020	71.243216	1601.684845
4.300000	-252.575378	73.586712	1604.857758
4.310000	-254.752052	74.179024	1608.187317
4.320000	-260.148560	72.288578	1607.727722
4.330000	-266.510498	71.804359	1615.643494
4.340000	-269.694595	69.678646	1624.977936
4.350000	-274.004921	65.417673	1629.104797
4.360000	-278.076508	62.398556	1637.499878
4.370000	-281.103210	60.824139	1644.632782
4.380000	-285.415390	61.614838	1650.029877
4.390000	-294.195938	64.219366	1657.797333
4.400000	-301.327271	64.545252	1661.141205
4.410000	-307.409821	64.706444	1658.955017
4.420000	-316.673920	66.640448	1658.034943
4.430000	-324.607330	69.815029	1662.963440
4.440000	-332.179825	72.866261	1671.208710
4.450000	-340.233536	76.155617	1681.822388
4.460000	-345.508392	78.641872	1696.698944
4.470000	-348.164719	79.794067	1711.258301
4.480000	-353.114792	80.145700	1722.657227
4.490000	-358.587540	80.661705	1731.687897
4.500000	-365.108902	82.505411	1739.608704
4.510000	-373.682556	84.750988	1744.526093
4.520000	-379.802734	87.962772	1749.598450
4.530000	-384.190964	90.245228	1754.193817
4.540000	-386.686829	90.840401	1761.472382
4.550000	-388.095306	89.866564	1771.592682
4.560000	-388.940765	86.771460	1782.183777
4.570000	-389.303680	83.433138	1797.199341
4.580000	-391.918823	82.532421	1808.112762
4.590000	-395.056839	80.711605	1816.344940
4.600000	-398.881210	79.738400	1821.101410
4.610000	-403.227768	79.410288	1821.433868
4.620000	-408.701538	79.890053	1823.819397
4.630000	-411.960876	81.296282	1824.143219
4.640000	-410.875000	80.779322	1829.046753
4.650000	-411.479858	78.691437	1839.484314
4.660000	-415.140732	76.756483	1847.397156
4.670000	-418.518143	74.137327	1857.998749
4.680000	-424.350082	72.641761	1863.069794
4.690000	-428.451294	73.640394	1869.246185
4.700000	-429.455338	77.415237	1868.622101
4.710000	-430.300949	82.766411	1865.623840
4.720000	-430.019714	88.640266	1871.312927
4.730000	-426.719711	92.467255	1877.158722
4.740000	-425.791916	93.357794	1878.894501
4.750000	-427.518234	92.591887	1882.688873
4.760000	-425.625534	92.274588	1883.325348
4.770000	-425.625183	93.119341	1879.852219
4.780000	-427.877930	95.809078	1876.225525
4.790000	-428.765579	100.154617	1873.539932
4.800000	-430.296371	101.606316	1871.326370
4.810000	-432.911011	101.169155	1870.538055
4.820000	-434.561432	98.920076	1869.279099
4.830000	-436.129333	94.213364	1868.018356
4.840000	-436.892273	90.513872	1869.922440
4.850000	-435.966003	88.985870	1867.238281
4.860000	-436.006485	89.021164	1866.922729
4.870000	-436.528503	88.735336	1867.874268
4.880000	-437.092712	87.365671	1863.452545
4.890000	-437.376511	85.795069	1855.554611
4.900000	-439.350372	84.102377	1840.386826
4.910000	-442.290329	83.130131	1824.268005
4.920000	-446.235840	85.291132	1813.841797
4.930000	-450.381790	88.738817	1807.205887
4.940000	-451.064941	91.662548	1803.572830
4.950000	-449.455688	93.030626	1800.253860
4.960000	-447.805435	93.435045	1801.203445
4.970000	-448.247650	94.686434	1805.786697
4.980000	-450.019211	92.444998	1813.058365
4.990000	-450.706436	91.892111	1818.433350
5.000000	-450.264221	90.080833	1814.164078
5.010000	-449.057709	89.313330	1802.781082
5.020000	-447.366287	88.702578	1799.777176
5.030000	-446.558609	89.260872	1801.831497
5.040000	-446.394608	91.665730	1805.309204
5.050000	-444.460220	96.078672	1807.517883
5.060000	-441.483505	98.252081	1807.827026
5.070000	-438.587936	101.788158	1801.501022
5.080000	-437.020554	103.915781	1800.075302
5.090000	-438.871902	103.350491	1798.336731
5.100000	-442.573273	103.220451	1798.181885
5.110000	-444.822449	102.321960	1795.656082
5.120000	-443.892609	100.221682	1793.447922
5.130000	-443.648621	97.483623	1788.239059
5.140000	-441.392487	95.632914	1784.451797
5.150000	-439.458450	92.989602	1779.868423
5.160000	-438.690582	91.186913	1770.700577
5.170000	-438.044708	88.740082	1764.373856
5.180000	-436.035446	89.382630	1751.092133
5.190000	-435.109161	89.582293	1740.025833
5.200000	-433.461304	90.183507	1730.854263
5.210000	-431.247879	90.784722	1726.425919
5.220000	-430.160629	90.504620	1729.427673
5.230000	-428.952606	88.898096	1735.592026
5.240000	-426.737808	87.578031	1738.120026
5.250000	-423.839874	86.577168	1740.015350
5.260000	-423.478470	87.541782	1740.488617
5.270000	-425.614670	89.876701	1740.491058
5.280000	-427.144272	94.250536	1738.753464
5.290000	-428.795380	96.935505	1732.118591
5.300000	-430.485779	96.932955	1723.584152
5.310000	-428.675415	96.529816	1715.833786
5.320000	-424.128418	95.929556	1712.350357
5.330000	-420.224594	94.683245	1709.974258
5.340000	-419.298813	95.282873	1707.279617
5.350000	-415.595764	97.324970	1701.421585
5.360000	-411.327316	97.393005	1683.702713
5.370000	-404.120773	97.542113	1659.491638
5.380000	-393.167114	95.532443	1628.944702
5.390000	-378.909561	96.102186	1599.179504
5.400000	-365.624207	99.656706	1574.947952
5.410000	-352.782944	96.785759	1556.729858
5.420000	-342.599167	91.735992	1536.624588
5.430000	-336.562210	91.891464	1501.183731
5.440000	-329.928207	99.058357	1441.693237
5.450000	-295.145050	112.726694	1480.469803
5.460000	-248.204620	91.701624	1538.542847
5.470000	-254.572327	81.854870	1530.480896
5.480000	-264.073624	104.239111	1525.423401
5.490000	-260.889687	106.550186	1522.571991
5.500000	-272.125458	103.904970	1525.265137
5.510000	-288.229614	113.821688	1531.905945
5.520000	-279.376221	113.591825	1524.614319
5.530000	-261.913254	107.503992	1525.214478
5.540000	-252.051239	99.863358	1528.021729
5.550000	-237.535187	98.178928	1530.810394
5.560000	-219.756416	93.944023	1556.057251
5.570000	-237.352081	93.845787	1557.972412
5.580000	-245.691437	102.160749	1560.353271
5.590000	-237.240944	101.915300	1568.878754
5.600000	-238.206696	93.153639	1576.303436
5.610000	-242.434662	89.407082	1588.469971
5.620000	-240.986374	89.324739	1606.475769
5.630000	-237.570679	92.726647	1624.002350
5.640000	-233.911331	97.578969	1642.801147
5.650000	-230.213364	101.288647	1661.609070
5.660000	-229.451271	103.978700	1674.733368
5.670000	-236.047684	100.476320	1671.903381
5.680000	-240.753937	98.580788	1671.605286
5.690000	-246.266678	98.417366	1667.667511
5.700000	-250.974121	94.456847	1661.835815
5.710000	-249.849274	92.394727	1661.525085
5.720000	-248.196304	91.970286	1670.852844
5.730000	-250.324844	89.051325	1679.716400
5.740000	-254.062119	85.281886	1686.368500
5.750000	-257.479179	86.978071	1694.599060
5.760000	-261.222382	88.910484	1705.517853
5.770000	-261.705605	91.849800	1715.952911
5.780000	-260.981285	95.031384	1719.902863
5.790000	-261.826241	94.753508	1719.108032
5.800000	-260.173615	92.666579	1717.672150
5.810000	-253.531288	92.180458	1715.912201
5.820000	-248.015137	92.143893	1712.575195
5.830000	-242.298233	93.125050	1714.614716
5.840000	-237.949135	92.645931	1707.494019
5.850000	-232.386559	91.373571	1686.454742
5.860000	-221.139931	84.867046	1656.228699
5.870000	-197.414612	77.270327	1624.392548
5.880000	-168.902905	73.313331	1592.388809
5.890000	-143.934826	69.289233	1564.028900
5.900000	-122.229458	65.814853	1541.204697
5.910000	-103.509132	65.054049	1518.227722
5.920000	-88.334136	64.102789	1491.768173
5.930000	-67.809726	63.439567	1473.189400
5.940000	-36.662233	57.695102	1460.137573
5.950000	-11.030205	55.900349	1442.678925
5.960000	9.855080	55.633599	1438.987877
5.970000	17.663094	51.273438	1429.646662
5.980000	10.218853	52.382081	1422.378809
5.990000	2.459488	49.663103	1423.336216
6.000000	-3.044765	44.427347	1423.036068
6.010000	-6.415215	41.835541	1428.901321
6.020000	-6.607159	40.537102	1437.927067
6.030000	-6.280827	40.167671	1445.534111
6.040000	-11.831856	45.886696	1449.348732
6.050000	-21.251488	48.700424	1455.855675
6.060000	-35.503267	49.850391	1459.844269
6.070000	-49.872118	49.940992	1470.466492
6.080000	-60.743945	46.622061	1475.400322
6.090000	-67.309368	43.790846	1478.750122
6.100000	-73.795665	46.272327	1484.945984
6.110000	-84.749158	50.644886	1493.833984
6.120000	-97.350522	54.920482	1503.981277
6.130000	-110.273464	57.463957	1518.713043
6.140000	-122.629990	57.315474	1529.330521
6.150000	-128.548355	55.362391	1541.363846
6.160000	-134.066360	52.408767	1552.609512
6.170000	-141.758995	54.183157	1568.283722
6.180000	-151.667622	58.120459	1585.861420
6.190000	-167.013592	62.102907	1602.972672
6.200000	-182.434608	65.556944	1624.032562
6.210000	-196.728416	67.086842	1638.608276
6.220000	-205.386124	69.666245	1647.643555
6.230000	-208.089058	71.688305	1659.675262
6.240000	-213.733467	73.394341	1666.340790
6.250000	-225.694054	76.497698	1670.957642
6.260000	-238.981781	77.358025	1680.161957
6.270000	-252.348289	76.132380	1684.151245
6.280000	-264.866951	74.183113	1690.510223
6.290000	-273.119400	73.291304	1701.604950
6.300000	-278.759033	74.495958	1711.428528
6.310000	-284.597946	78.953732	1723.936859
6.320000	-291.523239	83.974247	1732.493866
6.330000	-298.689285	84.977331	1735.046936
6.340000	-305.450378	82.764183	1734.438171
6.350000	-311.686584	79.143217	1739.203430
6.360000	-318.405655	74.998290	1740.176270
6.370000	-326.053726	73.910316	1738.936340
6.380000	-331.971420	75.113384	1735.007385
6.390000	-337.287125	78.768373	1725.545227
6.400000	-342.399338	81.414219	1713.078979
6.410000	-347.390747	83.738330	1703.927368
6.420000	-348.759216	85.297164	1693.659576
6.430000	-347.190979	85.690125	1677.696228
6.440000	-345.216949	85.768023	1663.307465
6.450000	-339.662186	86.657607	1656.502289
6.460000	-337.166489	87.908681	1651.920563
6.470000	-339.338226	87.553555	1647.819824
6.480000	-342.517090	86.547606	1644.035736
6.490000	-344.969574	85.061254	1640.880310
6.500000	-347.182495	83.978054	1637.408386
6.510000	-346.015976	83.938948	1634.087921
6.520000	-342.755966	81.214241	1630.610504
6.530000	-340.542694	77.405064	1630.295990
6.540000	-342.795441	76.881103	1627.462555
6.550000	-346.698776	76.557764	1623.681854
6.560000	-351.368271	77.918211	1621.167114
6.570000	-355.595215	81.691140	1616.439850
6.580000	-358.213577	84.666381	1611.076065
6.590000	-359.343689	87.036268	1603.338104
6.600000	-359.705429	87.555780	1594.960892
6.610000	-357.170914	85.991539	1584.995407
6.620000	-355.641983	84.986546	1577.879593
6.630000	-356.688553	82.251977	1570.296432
6.640000	-360.232681	79.795931	1559.246063
6.650000	-363.614014	77.578647	1543.925919
6.660000	-368.846344	75.604262	1529.398926
6.670000	-373.915695	73.428319	1519.605728
6.680000	-375.687408	73.303364	1513.287018
6.690000	-374.601883	74.912114	1507.274933
6.700000	-370.297516	80.014662	1507.108109
6.710000	-363.134537	85.082555	1512.943115
6.720000	-359.556000	87.423199	1523.051285
6.730000	-362.012070	88.508947	1531.905960
6.740000	-366.235428	87.779920	1534.918167
6.750000	-369.655212	86.044628	1534.451660
6.760000	-371.384933	83.508451	1532.244843
6.770000	-372.671219	82.142599	1533.192444
6.780000	-372.228683	82.064394	1531.766861
6.790000	-368.363632	78.541351	1530.339218
6.800000	-364.621948	77.590411	1533.655975
6.810000	-362.649963	78.516875	1531.290665
6.820000	-364.016068	77.468007	1528.930359
6.830000	-367.276230	79.468132	1527.203735
6.840000	-371.944366	82.038007	1521.682785
6.850000	-375.689453	84.083602	1520.108246
6.860000	-376.857162	85.720650	1514.577225
6.870000	-375.006149	86.596874	1515.366898
6.880000	-371.866104	84.667960	1522.476501
6.890000	-368.886505	84.431741	1530.376816
6.900000	-365.668182	85.928579	1539.223648
6.910000	-365.186829	89.189647	1549.656265
6.920000	-367.242035	91.564304	1555.981689
6.930000	-368.854675	92.169657	1558.199295
6.940000	-371.994537	91.082952	1555.990829
6.950000	-373.885040	87.983712	1555.041977
6.960000	-370.623505	83.565046	1556.933838
6.970000	-365.510620	79.391197	1558.352722
6.980000	-360.398056	77.189499	1562.140732
6.990000	-356.657394	77.244504	1565.617325
7.000000	-354.767914	81.193901	1560.875320
7.010000	-354.487854	84.377710	1555.186676
7.020000	-355.094421	86.033834	1549.181152
7.030000	-355.335678	85.834171	1545.228699
7.040000	-353.684586	83.698599	1545.541214
7.050000	-350.420853	78.911762	1546.483368
7.060000	-346.474655	75.815073	1552.484131
7.070000	-344.420654	73.409256	1557.856247
7.080000	-343.496582	73.742455	1556.909790
7.090000	-343.579102	75.279356	1555.649414
7.100000	-345.110580	78.219307	1551.701569
7.110000	-348.211334	79.544781	1548.389008
7.120000	-351.470474	79.897367	1540.964005
7.130000	-352.797119	79.726315	1538.912491
7.140000	-352.311691	77.712196	1540.969574
7.150000	-350.741577	75.343893	1548.874557
7.160000	-349.977280	74.870173	1553.777145
7.170000	-347.523773	75.405262	1557.573380
7.180000	-347.242004	77.459124	1561.368988
7.190000	-349.334808	80.191462	1569.116455
7.200000	-353.560730	81.036535	1570.700180
7.210000	-356.216888	81.630754	1567.224747
7.220000	-355.530685	80.370455	1563.902863
7.230000	-351.825409	77.908358	1564.213211
7.240000	-348.201126	73.724011	1568.479767
7.250000	-347.878540	72.281222	1573.065155
7.260000	-349.568604	74.173893	1577.970215
7.270000	-353.393311	77.516983	1582.241470
7.280000	-355.407501	80.938606	1585.563171
7.290000	-355.610657	83.831181	1582.401215
7.300000	-353.839951	83.749153	1578.449768
7.310000	-353.154770	80.611130	1577.029205
7.320000	-352.428421	77.435591	1579.876846
7.330000	-351.381332	75.708885	1582.091202
7.340000	-350.255814	75.438959	1585.094254
7.350000	-348.447830	77.380280	1585.249832
7.360000	-343.822754	80.565676	1583.192795
7.370000	-341.246216	81.614229	1578.447525
7.380000	-340.199661	81.007921	1574.653717
7.390000	-338.667831	80.197502	1568.017151
7.400000	-335.969482	76.739319	1561.224487
7.410000	-333.958862	75.619871	1554.905823
7.420000	-334.321274	74.299166	1552.065308
7.430000	-336.656708	75.713346	1553.965088
7.440000	-338.950272	75.879946	1560.288544
7.450000	-341.848541	76.603251	1566.455139
7.460000	-341.484253	74.387873	1571.033798
7.470000	-337.215988	74.496922	1577.979034
7.480000	-332.101395	73.683325	1590.297501
7.490000	-330.208176	72.712347	1601.043091
7.500000	-332.784180	73.834339	1602.466095
7.510000	-338.457535	75.118164	1604.208664
7.520000	-343.971146	76.887157	1605.319092
7.530000	-347.472244	78.213263	1606.585587
7.540000	-347.794327	80.421326	1610.852249
7.550000	-345.459244	81.900679	1613.851990
7.560000	-341.876312	82.174417	1615.748474
7.570000	-341.834610	82.649094	1614.963287
7.580000	-345.574768	83.884586	1610.544815
7.590000	-349.073166	86.568592	1605.495453
7.600000	-352.409073	87.527798	1600.285446
7.610000	-353.448837	89.491367	1598.860565
7.620000	-351.509689	91.573526	1601.698517
7.630000	-349.244064	92.616995	1607.375885
7.640000	-344.159439	97.150431	1613.525757
7.650000	-339.440292	101.557648	1615.099426
7.660000	-338.466888	100.864544	1611.304962
7.670000	-339.587646	98.044136	1604.512436
7.680000	-343.246994	95.026614	1601.990707
7.690000	-348.272095	92.287601	1596.623688
7.700000	-350.238327	92.274880	1587.459854
7.710000	-348.747849	92.552117	1578.292191
7.720000	-346.252151	93.836889	1570.388000
7.730000	-342.992661	98.411026	1561.535629
7.740000	-341.183655	100.741809	1552.525757
7.750000	-342.713608	103.189911	1540.669846
7.760000	-344.966354	104.549406	1534.661072
7.770000	-346.540710	104.516979	1531.815048
7.780000	-347.185715	102.073647	1528.180328
7.790000	-345.176636	100.513856	1526.439972
7.800000	-340.511047	96.782246	1526.121841
7.810000	-338.055481	90.757695	1532.761963
7.820000	-337.208847	89.101564	1536.716629
7.830000	-339.176941	88.005954	1539.410782
7.840000	-342.275299	88.886315	1539.415085
7.850000	-344.047379	91.456191	1536.257843
7.860000	-343.807632	92.946034	1525.036865
7.870000	-342.681946	91.906387	1513.021561
7.880000	-339.786057	88.934012	1500.218582
7.890000	-337.935028	83.830194	1489.475433
7.900000	-340.995621	78.602376	1483.479889
7.910000	-344.778488	73.851789	1481.432526
7.920000	-346.751663	71.434203	1483.490250
7.930000	-346.872467	70.581183	1486.175522
7.940000	-347.838547	71.260611	1486.333969
7.950000	-347.515793	68.530811	1485.699875
7.960000	-346.150528	66.811105	1488.382217
7.970000	-346.715912	66.451202	1492.334091
7.980000	-347.964111	67.691467	1489.963287
7.990000	-348.610657	70.902611	1490.595398
8.000000	-350.464233	74.557596	1489.963699
8.010000	-352.800507	80.301103	1492.492538
8.020000	-352.239014	84.316307	1491.543472
8.030000	-349.864792	85.842075	1489.487106
8.040000	-350.146896	86.610849	1487.748550
8.050000	-349.666580	87.267388	1491.059830
8.060000	-347.657822	91.655853	1497.530167
8.070000	-349.591522	98.084506	1505.745010
8.080000	-352.692108	104.548767	1512.695206
8.090000	-349.557480	109.166780	1513.160980
8.100000	-343.806702	109.045007	1511.570145
8.110000	-338.820221	104.901674	1512.981735
8.120000	-335.038712	99.628394	1516.128006
8.130000	-332.224319	94.802767	1522.906921
8.140000	-331.144211	94.317917	1526.684341
8.150000	-330.547485	96.170214	1527.464325
8.160000	-329.348114	99.065015	1522.241333
8.170000	-325.932755	103.115511	1513.382263
8.180000	-322.193115	104.916289	1509.104599
8.190000	-319.257736	102.702826	1512.888031
8.200000	-315.875916	98.320717	1517.772812
8.210000	-310.563614	94.344620	1521.705109
8.220000	-304.084610	92.217630	1524.210999
8.230000	-296.639343	93.753267	1524.658630
8.240000	-288.109741	97.664825	1519.575134
8.250000	-282.074814	100.736724	1516.546082
8.260000	-276.240326	102.231660	1515.894440
8.270000	-272.856476	101.752850	1506.714355
8.280000	-268.867065	98.667608	1496.109039
8.290000	-262.544777	94.462912	1487.556152
8.300000	-256.500687	91.626932	1476.159576
8.310000	-250.978951	88.207867	1461.757660
8.320000	-241.910698	82.935884	1434.858368
8.330000	-217.028023	76.426189	1423.263184
8.340000	-194.083466	79.993757	1420.370789
8.350000	-189.292831	81.651157	1412.616608
8.360000	-196.776382	80.064980	1406.142609
8.370000	-195.373169	79.772472	1403.293762
8.380000	-196.019897	76.512043	1396.024261
8.390000	-199.238045	71.036240	1382.126190
8.400000	-194.326096	67.015306	1367.114075
8.410000	-187.685455	64.496624	1353.361176
8.420000	-186.962158	64.238787	1340.718170
8.430000	-187.609726	64.852722	1321.601074
8.440000	-187.853714	63.085638	1291.581116
8.450000	-185.117760	59.864950	1255.398468
8.460000	-180.127708	57.074745	1217.952637
8.470000	-175.382492	53.722111	1175.290771
8.480000	-174.783234	52.548609	1132.626205
8.490000	-174.308334	54.593887	1092.170349
8.500000	-171.900070	56.755844	1051.076584
8.510000	-167.478294	56.061789	1010.298691
8.520000	-158.429565	54.082321	966.667435
8.530000	-144.792336	51.250782	923.820190
8.540000	-131.878738	48.218626	885.555603
8.550000	-120.781086	43.630182	842.231888
8.560000	-109.721397	40.089970	798.901627
8.570000	-95.475388	36.789165	767.261780
8.580000	-81.227005	30.971266	731.828293
8.590000	-69.314209	27.204689	693.079025
8.600000	-58.728056	25.687821	664.285187
8.610000	-49.229982	25.699269	644.501717
8.620000	-42.832139	27.871723	636.740128
8.630000	-41.023650	28.400133	636.421913
8.640000	-46.014547	27.436789	629.796516
8.650000	-51.165728	25.058631	624.910614
8.660000	-52.693304	19.392385	622.073921
8.670000	-54.182255	15.217258	614.813736
8.680000	-53.016411	13.895284	608.655479
8.690000	-50.482759	13.983673	602.808067
8.700000	-51.006805	14.754350	598.856987
8.710000	-52.051847	14.274904	592.059036
8.720000	-49.353672	11.985133	582.416687
8.730000	-44.402418	9.652441	570.085602
8.740000	-38.566573	8.448102	551.747505
8.750000	-32.451681	8.291043	532.776276
8.760000	-27.746959	9.985004	510.798439
8.770000	-23.324846	12.236623	488.658020
8.780000	-17.411067	13.917864	473.625923
8.790000	-10.572713	13.988761	462.389580
8.800000	-3.974776	13.006972	445.782486
8.810000	1.738059	10.989352	430.135593
8.820000	2.096055	10.261914	412.119156
8.830000	1.609784	11.706294	402.320484
8.840000	-0.525037	12.551685	396.476833
8.850000	-3.705409	12.027091	392.213448
8.860000	-6.001528	9.940481	390.005791
8.870000	-6.123181	6.818995	387.170078
8.880000	-5.159977	4.892942	379.118282
8.890000	-3.632740	4.293954	371.694569
8.900000	-2.267310	3.855840	360.320232
8.910000	-2.307634	4.060273	351.631538
8.920000	-3.314558	3.860610	341.678371
8.930000	-4.279460	4.020213	332.830891
8.940000	-3.594622	2.854026	327.457855
8.950000	-0.696352	1.526964	324.610668
8.960000	3.730343	1.488493	322.710899
8.970000	7.915602	2.253765	313.225044
8.980000	10.127337	3.257487	305.317616
8.990000	11.977509	3.216790	293.775181
9.000000	15.960465	3.816098	280.966282
9.010000	20.787691	3.967432	268.161339
9.020000	25.374326	2.229595	254.877918
9.030000	29.156000	2.379658	245.074654
9.040000	31.005493	2.451827	233.376730
9.050000	32.734353	2.805687	221.836908
9.060000	34.584187	3.040639	211.721018
9.070000	35.588733	2.189525	202.554352
9.080000	36.433511	2.027377	192.753222
9.090000	38.485985	1.299622	184.851368
9.100000	40.899511	1.216322	172.837353
9.110000	43.554985	1.136838	164.146355
9.120000	45.526133	1.016977	152.451534
9.130000	45.686581	0.734650	144.077436
9.140000	46.653011	0.372839	133.331352
9.150000	47.779888	-0.228058	124.481911
9.160000	48.182964	-1.151024	117.530914
9.170000	48.746149	-1.712498	109.787844
9.180000	49.511635	-1.711862	102.044108
9.190000	50.277290	-0.987605	99.516936
9.200000	49.956053	-0.585416	94.777034
9.210000	50.519918	0.098463	92.881697
9.220000	49.756128	0.219596	91.302766
9.230000	48.791567	0.621149	88.301557
9.240000	49.919127	1.305664	85.615934
9.250000	49.838985	1.226817	81.981089
9.260000	50.282045	1.869682	74.868695
9.270000	50.121426	2.191751	72.500136
9.280000	48.913898	2.594257	68.234932
9.290000	48.471178	2.597119	65.232081
9.300000	48.190094	1.912604	61.439929
9.310000	47.626232	2.236263	60.334877
9.320000	46.982567	2.597119	56.859463
9.330000	47.063047	2.436562	52.909027
9.340000	46.942753	1.713895	50.380545
9.350000	46.419724	1.794332	47.851897
9.360000	46.701485	1.594351	44.849048
9.370000	45.857218	1.593397	43.110685
9.380000	45.655594	2.114811	44.217215
9.390000	45.374172	1.995586	41.213218
9.400000	44.851480	2.155825	39.950863
9.410000	44.248142	2.234036	41.373144
9.420000	43.725962	2.315110	39.792084
9.430000	43.403875	2.315428	39.634453
9.440000	42.115189	2.557695	39.793395
9.450000	41.511681	2.680101	37.895599
9.460000	40.263147	3.042230	36.632588
9.470000	40.423767	3.082607	37.263929
9.480000	38.452112	3.082607	35.683034
9.490000	38.169841	3.605929	36.315032
9.500000	38.612052	3.444736	36.789234
9.510000	39.416674	3.807183	35.049888
9.520000	37.928062	3.565234	34.418055
9.530000	39.137457	4.166131	35.998459
9.540000	36.643112	3.641537	34.419367
9.550000	38.656111	3.558237	34.573885
9.560000	38.532251	3.482570	34.415599
9.570000	36.399129	3.602749	33.309233
9.580000	38.696436	2.635589	34.573065
9.590000	40.063225	3.201515	37.734201
9.600000	39.581537	3.963924	35.047596
9.610000	46.386019	4.201102	38.046514
9.620000	45.136301	2.717299	39.943326
9.630000	43.003855	3.079109	39.470761
9.640000	45.381643	2.393958	42.787399
9.650000	46.548166	2.476940	42.628129
9.660000	45.823004	2.758949	42.312542
9.670000	46.265896	2.116719	44.524123
9.680000	46.225401	1.272283	45.631471
9.690000	46.023779	1.355264	46.103708
9.700000	46.262669	0.596354	47.683785
9.710000	44.935696	0.516234	49.106066
9.720000	45.136978	0.554704	49.737901
9.730000	46.585434	0.515598	50.842953
9.740000	46.505466	1.278325	50.369734
9.750000	47.229099	1.319975	49.736099
9.760000	46.544601	1.280551	48.312341
9.770000	44.087523	1.564786	47.682474
9.780000	41.349873	1.847749	48.630388
9.790000	40.382595	1.567330	49.737080
9.800000	39.416503	1.931685	51.950791
9.810000	38.451772	1.327925	54.004744
9.820000	39.135421	0.846253	54.162867
9.830000	39.699455	0.844981	54.160901
9.840000	40.142176	0.644682	53.212494
9.850000	40.464262	0.401143	53.369960
9.860000	43.164474	3.759808	63.474390
9.870000	50.169222	3.385595	71.840129
9.880000	57.410482	-2.450748	77.047844
9.890000	59.986494	-5.783664	71.675782
9.900000	56.405596	-4.370440	64.729216
9.910000	49.685837	-1.189176	59.046641
9.920000	45.178324	1.588627	52.570832
9.930000	42.399498	4.407444	46.725713
9.940000	40.667582	5.255061	42.303530
9.950000	39.059357	4.570227	40.091947
9.960000	38.779293	3.682551	38.353586
9.970000	40.511208	2.755768	38.986238
9.980000	41.115906	2.194295	39.459623
9.990000	41.556759	3.441556	39.457493
10.000000	42.560966	5.850552	39.299206
10.010000	43.447935	5.690630	42.934546
10.020000	46.992414	4.200784	45.302940
10.030000	50.615847	3.114399	47.829947
10.040000	51.462322	1.945349	50.832797
10.050000	52.548538	2.187298	52.886584
10.060000	52.304892	3.153823	53.991148
10.070000	51.257305	4.161997	52.884454
10.080000	49.323936	4.686273	52.097120
10.090000	48.115561	3.484160	51.464304
10.100000	46.828402	2.440378	48.305787
10.110000	46.506824	2.120854	46.411597
10.120000	45.580719	2.844475	44.673398
10.130000	44.855047	4.211915	42.935855
10.140000	44.572435	4.534620	43.092010
10.150000	43.928093	4.334003	41.829982
10.160000	43.285618	3.168133	41.672677
10.170000	43.487410	2.201609	41.040844
10.180000	43.125338	1.761587	41.040517
10.190000	42.924055	2.243577	40.723946
10.200000	42.319529	3.047954	40.250397
10.210000	41.876637	3.207239	39.776359
10.220000	41.232975	2.966562	39.144526
10.230000	40.267733	2.000674	36.932452
10.240000	40.350758	1.234449	36.458247
10.250000	39.504963	1.395642	35.509351
10.260000	38.496511	2.404135	33.613849
10.270000	37.690871	2.967198	32.666262
10.280000	35.679229	3.208511	32.034593
10.290000	35.075381	3.167179	31.718184
10.300000	33.224528	2.406042	29.507092
10.310000	32.259119	1.921191	28.242442
10.320000	32.179657	1.640136	26.819342
10.330000	31.817077	1.719937	27.926853
10.340000	33.144728	3.007258	29.506602
10.350000	30.007908	2.963064	26.504081
10.360000	34.352427	1.643634	28.238838
10.370000	29.928108	1.517094	25.871918
10.380000	32.541559	1.520592	27.923905
10.390000	31.091066	1.364169	26.818032
10.400000	32.136786	1.648722	27.289778
10.410000	31.691519	1.892261	28.870017
10.420000	32.657099	2.457551	30.765518
10.430000	33.540163	1.700549	29.815473
10.440000	34.828001	1.864923	31.710810
10.450000	34.062345	2.109416	29.655877
10.460000	33.898670	2.720171	31.710483
10.470000	32.529844	4.246579	33.606639
10.480000	26.217744	5.848972	34.082315
10.490000	21.273791	7.090191	36.926058
10.500000	20.146404	8.098048	37.715851
10.510000	21.029977	7.902200	37.084507
10.520000	22.073829	8.148920	37.874626
10.530000	22.514852	8.753634	36.611286
10.540000	23.681037	9.518905	37.241976
10.550000	22.836259	9.198744	35.345816
10.560000	22.030619	8.274188	35.189004
10.570000	20.904419	6.827900	32.502238
10.580000	21.064699	6.262927	33.135054
10.590000	22.351856	5.781891	32.977587
10.600000	23.557347	5.260478	32.819303
10.610000	23.676791	5.101829	29.500046
10.620000	23.354366	4.940000	31.238079
10.630000	22.670377	3.814508	30.290329
10.640000	22.186823	3.170689	30.607064
10.650000	23.072433	2.848619	30.134008
10.660000	23.836730	2.648320	29.501848
10.670000	24.077830	2.849891	28.711235
10.680000	24.197445	3.250808	29.185930
10.690000	23.635279	3.210430	30.134007
10.700000	22.991446	3.089932	27.130831
10.710000	23.232543	2.807924	27.920787
10.720000	23.715928	2.607307	26.814586
10.730000	23.876377	3.009495	25.867164
10.740000	24.640844	3.450788	29.502175
10.750000	24.359422	3.893991	29.660624
10.760000	23.675263	3.893355	27.447732
10.770000	23.233902	3.890811	28.554259
10.780000	22.792200	3.770949	27.288954
10.790000	22.792878	4.213198	28.078583
10.800000	23.275245	4.654810	29.975230
10.810000	22.833374	5.095786	29.499553
10.820000	22.430638	5.256979	30.291147
10.830000	22.389973	5.218510	31.555142
10.840000	22.711891	4.293954	30.763058
10.850000	23.436033	4.536221	31.081104
10.860000	24.079867	4.496797	29.657840
10.870000	23.837580	4.376300	30.132534
10.880000	24.038015	4.738746	30.449271
10.890000	24.037675	4.578189	31.555308
10.900000	23.877226	3.773811	29.185111
10.910000	23.957366	3.452061	28.553114
10.920000	24.198633	3.009495	28.868866
10.930000	23.836052	2.887407	26.183901
10.940000	22.871321	2.964347	24.922526
10.950000	20.659076	2.879138	23.501884
10.960000	18.448700	2.791705	20.184919
10.970000	15.875911	2.059497	17.184529
10.980000	12.902086	1.247488	14.342424
10.990000	9.927072	0.918741	10.078364
11.000000	7.073541	0.830670	7.552831
11.010000	4.741173	0.864052	5.815616
11.020000	3.092792	1.222682	3.130978
11.030000	1.243638	0.696180	0.603478
11.040000	0.319231	0.010711	-0.502231
11.050000	-0.122471	-0.071953	-0.659697
11.060000	0.159121	-0.233464	-0.027209
11.070000	0.117948	0.088286	0.130586
11.080000	-0.083165	0.611608	-0.661009
11.090000	0.037469	0.893617	0.764222
11.100000	-0.083165	0.491429	0.762257
11.110000	0.158272	0.531489	0.129930
11.120000	0.440374	0.734014	-0.501903
11.130000	-0.162965	0.049499	0.605609
11.140000	-0.042671	0.410991	-0.185494
11.150000	-0.244463	0.893617	1.236459
11.160000	-0.243954	0.572184	0.762256
11.170000	-0.082996	0.330553	-0.818148
11.180000	0.239600	-0.071317	0.447650
11.190000	-0.042332	-0.112013	-0.817656
11.200000	-0.002347	0.008485	0.448142
11.210000	-0.485392	-0.151119	0.287397
11.220000	-0.323924	0.130572	1.237934
11.230000	0.078133	0.129618	0.129767
11.240000	-0.122641	-0.392750	0.289528
11.250000	-0.162796	-0.393704	0.288872
11.260000	0.320080	-0.312312	0.131242
11.270000	-0.001837	-0.111377	-0.026880
11.280000	-0.364418	0.411309	-0.975123
11.290000	0.118287	0.371249	-0.026225
11.300000	-0.163645	0.210056	-0.818475
11.310000	-0.042501	0.090830	0.288380
11.320000	0.239091	-0.030303	1.079976
11.330000	-0.162626	0.130890	0.762256
11.340000	-0.404233	0.410991	-0.028028
11.350000	-0.324263	0.693318	0.287562
11.360000	-0.324263	0.734014	0.921525
11.370000	-0.082826	0.493337	-0.659534
11.380000	-0.082316	0.251070	-0.186641
11.390000	-0.243105	0.130254	-0.818803
11.400000	-0.203120	0.250434	0.130095
11.410000	-0.042332	0.251070	0.446831
11.420000	-0.163645	0.210374	0.762748
11.430000	0.158951	0.572502	0.287725
11.440000	0.077963	0.331189	0.289036
11.450000	0.038827	-0.233146	-0.502395
11.460000	-0.203120	-0.270980	-0.184840
11.470000	-0.002347	-0.111059	-0.500756
11.480000	-0.203630	0.130572	1.079647
11.490000	-0.042501	0.209738	0.447650
11.500000	0.118287	0.210374	0.764222
11.510000	-0.042162	-0.109787	-0.817656
11.520000	-0.082486	-0.111059	0.287726
11.530000	-0.203120	0.129618	-0.027536
11.540000	0.198936	0.211010	0.288545
11.550000	0.158951	0.331189	-0.342798
11.560000	0.037808	0.050771	-0.025898
11.570000	-0.203460	0.412263	0.762419
11.580000	0.158951	-0.030303	0.606100
11.590000	0.038148	0.171586	0.921525
11.600000	0.199276	0.289858	-0.027209
11.610000	0.399880	0.371249	-0.343781
11.620000	-0.042671	0.370931	-0.976106
11.630000	-0.445407	0.292720	0.288544
11.640000	-0.324433	0.733696	0.130749
11.650000	0.320419	0.410991	-0.502067
11.660000	0.038487	-0.148893	1.393926
11.670000	-0.324943	0.613834	-0.660680
11.680000	-0.122641	0.090830	0.605280
11.690000	-0.123150	0.170314	0.130749
11.700000	-0.083165	0.534351	0.764058
11.710000	-0.444897	0.010711	0.289200
11.720000	-0.283430	-0.354280	-0.027208
11.730000	0.038148	0.210692	-0.027537
11.740000	-0.042332	-0.029985	-0.027536
11.750000	-0.122471	-0.352054	-0.343290
11.760000	-0.002347	0.129936	-0.026225
11.770000	-0.203290	0.008803	0.130094
11.780000	-0.042332	-0.392114	-0.660516
11.790000	-0.042671	-0.110423	0.288544
11.800000	-0.162965	0.129936	-0.026880
11.810000	0.199276	-0.311994	0.763567
11.820000	-0.042501	0.250434	0.762092
11.830000	-0.324263	0.251706	0.446830
11.840000	0.360065	0.252024	0.447322
11.850000	0.158442	0.774710	0.288708
11.860000	-0.404743	0.212600	0.131242
11.870000	0.239600	0.412581	0.446503
11.880000	0.802276	0.613198	1.237606
11.890000	-0.565361	0.613198	0.289691
11.900000	-0.082996	0.452959	0.447650
11.910000	-0.525546	0.652940	-1.607121
11.920000	-0.484882	0.210374	0.447322
11.930000	0.360065	0.291766	-0.343616
11.940000	-0.244124	0.653576	-0.500101
11.950000	-0.444897	0.492383	1.078828
11.960000	-0.002007	0.170632	0.763894
11.970000	-0.123490	0.412581	-0.027209
11.980000	-0.405082	0.250116	0.130422
11.990000	0.240280	0.410991	0.130095
12.000000	-0.324263	0.211964	0.288872
12.010000	0.077963	-0.511657	1.238097
12.020000	0.199955	-0.755514	0.446667
12.030000	-0.163305	0.128664	0.921689
12.040000	-0.042841	0.131526	1.395892
12.050000	0.278736	-0.471279	1.078501
12.060000	-0.082316	0.331189	0.289364
12.070000	-0.363569	0.329599	-0.501903
12.080000	-0.283939	-0.271298	-0.027864
12.090000	0.158612	-0.471279	-0.185659
12.100000	-0.001328	0.331825	-1.292187
12.110000	-0.283769	0.693636	0.289035
12.120000	-0.203630	0.734650	0.604625
12.130000	-0.485731	0.373475	0.922836
12.140000	-0.284109	0.332143	0.289200
12.150000	0.199446	0.371249	-1.133737
12.160000	0.239431	0.252660	0.287889
12.170000	-0.243784	0.453277	-0.817493
12.180000	-0.042841	0.693954	0.130422
12.190000	0.037808	0.652304	0.131897
12.200000	0.199106	0.292720	1.079976
12.210000	-0.123150	0.331825	0.604461
12.220000	0.078472	0.450097	2.185685
12.230000	-1.451482	0.130254	-2.080669
12.240000	0.641487	0.212918	-0.028355
12.250000	-1.570418	1.014433	-2.082635
12.260000	-0.526735	0.090194	1.080958
12.270000	1.204162	0.250434	-1.451128
12.280000	-0.968097	-0.795892	2.029201
12.290000	0.037469	0.049181	-1.133409
12.300000	-0.042332	0.129936	1.711645
12.310000	-0.163814	0.172858	0.921033
12.320000	0.078302	0.211646	1.237770
12.330000	-0.485052	-0.149847	0.130586
12.340000	0.722476	0.009757	-0.501903
12.350000	-0.082656	0.170950	0.605772
12.360000	-0.323924	0.132480	-0.501576
12.370000	-0.043350	0.453595	-0.501248
12.380000	-0.082656	0.493655	-0.816509
12.390000	0.078302	0.293038	0.447486
12.400000	0.159291	-0.270980	0.130586
12.410000	0.400898	0.051407	-0.501903
12.420000	-0.122471	0.613834	-0.343617
12.430000	-0.445237	0.292720	0.130750
12.440000	-0.284109	0.534669	-0.185986
12.450000	-0.123150	0.815088	-0.658879
12.460000	-0.082316	0.452005	0.605281
12.470000	-0.001667	-0.270662	1.237606
12.480000	-0.163305	-0.110741	0.447323
12.490000	-0.565192	-0.151437	1.711973
12.500000	0.199106	0.412581	0.921362
12.510000	-0.203460	0.252024	-0.027372
12.520000	-0.042162	0.131526	0.130750
12.530000	0.118627	-0.111695	0.921689
12.540000	-0.363739	-0.150801	-0.659862
12.550000	-0.122132	-0.310722	-0.343944
12.560000	0.118966	-0.029349	0.447322
12.570000	0.118797	0.412899	1.079648
12.580000	0.078302	0.132162	1.711154
12.590000	-0.041822	0.212600	0.130258
12.600000	-0.202611	0.292720	1.079975
12.610000	-0.444218	-0.149847	0.130914
12.620000	-0.041652	-0.068773	-0.659534
12.630000	-0.042332	0.253296	0.605280
12.640000	-0.163135	0.775346	0.605608
12.650000	-0.002177	0.815088	-0.975779
12.660000	-0.002007	0.494927	-0.343617
12.670000	-0.001837	0.414171	0.605772
12.680000	-0.001837	0.132162	-0.659370
12.690000	-0.001837	0.292084	-0.500920
12.700000	-0.082996	0.534033	1.396220
12.710000	0.118457	0.413535	0.605936
12.720000	0.077963	0.493337	1.079647
12.730000	-0.002347	0.251706	0.288217
12.740000	-0.243954	-0.231238	0.763567
12.750000	-0.001837	-0.150801	-0.025897
12.760000	-0.082656	-0.151119	1.395728
12.770000	0.118118	0.049499	-0.184348
12.780000	-0.163645	-0.070999	0.446340
12.790000	0.037978	-0.030621	0.130913
12.800000	-0.284109	-0.472869	0.604953
12.810000	-0.162965	-0.432492	0.764223
12.820000	-0.042671	-0.311358	0.921525
12.830000	-0.002347	-0.189588	-0.660353
12.840000	0.118118	-0.070045	-0.342798
12.850000	0.279585	0.252978	0.289200
12.860000	0.239091	0.373475	0.447486
12.870000	-0.081977	-0.189906	0.288053
12.880000	0.078982	0.132480	0.288544
12.890000	-0.122471	0.172540	-0.501576
12.900000	0.440374	0.333098	-0.659042
12.910000	0.320080	0.655166	0.762419
12.920000	0.239600	0.494927	0.289363
12.930000	-0.243784	0.574729	0.446994
12.940000	-0.001158	0.534351	1.237770
12.950000	0.037978	0.293674	0.447322
12.960000	0.119136	0.373793	0.290511
12.970000	-0.122641	0.252660	0.763567
12.980000	-0.001667	0.373475	0.922508
12.990000	-0.243445	0.413217	1.553523
13.000000	-0.403724	0.614152	-0.026717
13.010000	-0.323584	0.132480	-0.027045
13.020000	-0.082147	0.090830	0.288217
13.030000	-0.081807	-0.029349	0.763895
13.040000	-0.243105	0.090194	0.764058
13.050000	-0.122471	0.211964	0.290182
13.060000	-0.323414	0.373157	0.605936
13.070000	-0.082147	-0.109787	0.763239
13.080000	-0.082147	-0.027123	1.078992
13.090000	0.038997	0.132480	0.447650
13.100000	0.159800	0.092421	0.920706
13.110000	-0.242765	0.453595	1.396057
13.120000	-0.001667	0.576319	0.922017
13.130000	-0.122132	0.415443	1.237606
13.140000	-0.121622	0.415443	0.604625
13.150000	0.160310	0.334688	0.130586
13.160000	-0.242935	0.213236	0.604953
13.170000	-0.242935	0.414807	0.447486
13.180000	-0.162116	0.535305	1.396056
13.190000	-0.121622	0.696498	-0.184184
13.200000	-0.202271	0.415443	-0.501248
13.210000	-0.001158	0.255204	1.079811
13.220000	0.200125	0.173176	1.395892
13.230000	-0.202781	0.414807	1.238425
13.240000	-0.322396	0.174130	-0.026225
13.250000	-0.001667	0.495245	-0.343944
13.260000	0.079151	0.374747	0.604789
13.270000	-0.041822	0.253614	1.870422
13.280000	-0.161777	0.012937	1.396384
13.290000	-0.121792	-0.107879	-0.184840
13.300000	0.079491	0.132798	0.447486
13.310000	-0.081807	0.293992	-0.027372
13.320000	-0.283090	0.052361	1.080303
13.330000	-0.081807	0.253932	0.447158
13.340000	-0.122301	0.374111	1.079647
13.350000	-0.000988	-0.026805	-0.501248
13.360000	-0.081637	-0.189588	-0.660189
13.370000	-0.122471	0.173812	0.605772
13.380000	-0.202781	0.374429	-0.343125
13.390000	-0.242426	0.374747	0.605608
13.400000	0.159461	0.294310	0.763239
13.410000	-0.282750	0.214190	0.131242
13.420000	0.039506	0.213554	0.763239
13.430000	-0.282920	0.375384	1.870751
13.440000	-0.122301	0.375702	0.446503
13.450000	-0.323075	0.213554	-0.502068
13.460000	0.240280	0.616697	-0.025898
13.470000	0.199615	0.495245	1.553195
13.480000	-0.162286	0.335324	0.446994
13.490000	-0.242935	0.294628	-0.027372
13.500000	-0.161947	0.293038	2.975804
13.510000	-0.323245	0.294628	1.238261
13.520000	0.038827	0.334688	-0.185659
13.530000	0.079491	0.616060	0.921688
13.540000	-0.121962	0.253932	-0.184511
13.550000	-0.201932	0.133752	-0.816837
13.560000	-0.242935	0.093693	-0.343453
13.570000	-0.161947	0.294628	-0.027536
13.580000	0.280434	0.053633	1.553523
13.590000	-0.041313	0.334688	2.029200
13.600000	0.199615	0.415443	0.288544
13.610000	0.080510	-0.068773	-0.975614
13.620000	-1.008591	-0.747564	-0.027045
13.630000	-0.041313	1.337773	1.712300
13.640000	0.924947	-0.552035	0.763731
13.650000	1.123344	0.178901	-0.502395
13.660000	0.400219	1.981911	0.129931
13.670000	-0.242765	-1.074403	0.765042
13.680000	-0.725980	0.133116	0.764386
13.690000	0.842770	1.060217	-1.134884
13.700000	-0.363399	-0.589551	2.186503
13.710000	0.562536	0.572502	0.921525
13.720000	0.601672	0.658664	-0.184675
13.730000	-0.082656	-0.027441	1.870750
13.740000	-0.201762	-0.431219	-0.183856
13.750000	-0.202101	0.575047	-0.343126
13.760000	-0.122471	0.696180	0.922345
13.770000	0.199785	-0.709412	-0.975615
13.780000	0.119476	1.057037	0.446831
13.790000	-0.243105	0.816042	-0.501412
13.800000	0.118627	-0.187998	0.132389
13.810000	-0.121962	0.093057	1.396711
13.820000	-0.001498	0.495563	0.130259
13.830000	0.199785	0.252660	-0.343289
13.840000	0.118797	-0.066865	-0.027372
13.850000	-0.082486	0.456139	-0.343453
13.860000	-0.000988	0.575365	0.289691
13.870000	-0.001158	-0.268754	0.762256
13.880000	-0.041483	0.214190	0.763731
13.890000	0.078812	0.335960	1.237933
13.900000	-0.041313	0.173176	1.237934
13.910000	-0.323245	0.654848	0.289200
13.920000	-0.363399	0.698088	-0.343780
13.930000	-0.001667	0.254568	0.132061
13.940000	0.078982	0.012937	0.605117
13.950000	0.079830	0.616379	0.132061
13.960000	0.239770	0.054269	0.763895
13.970000	-0.162796	0.052679	1.396711
13.980000	-0.162796	0.816678	0.763402
13.990000	-0.081807	0.174448	1.712792
14.000000	0.159800	-0.107879	0.130095
14.010000	0.159461	0.134070	2.028381
14.020000	0.119306	0.333734	0.763240
14.030000	-0.081807	0.212600	0.921525
14.040000	-0.001667	0.174448	-0.659698
14.050000	0.239600	0.415443	-0.343125
14.060000	0.039166	0.173176	0.131406
14.070000	-0.122132	0.253614	0.446995
14.080000	-0.081637	0.295900	0.762911
14.090000	-0.081468	-0.067183	-0.342143
14.100000	-0.444048	0.052361	0.922508
14.110000	-0.081807	0.535305	-0.185167
14.120000	0.159800	0.455503	0.921853
14.130000	0.159800	0.012937	-0.185167
14.140000	0.039506	0.335324	0.922672
14.150000	-0.162116	0.254568	0.447158
14.160000	-0.202781	0.175084	-0.027372
14.170000	-0.001328	0.375384	0.446175
14.180000	0.119306	0.576319	0.447814
14.190000	0.159461	0.255204	0.604953
14.200000	-0.081637	0.093693	2.028545
14.210000	-0.202271	0.375065	0.763567
14.220000	-0.283090	0.294946	0.448960
14.230000	-0.041652	0.214508	-1.133736
14.240000	0.078812	0.455503	0.606264
14.250000	-0.041822	0.414807	0.446994
14.260000	-0.242596	0.295264	-0.344436
14.270000	-0.283090	-0.067183	-0.026226
14.280000	-0.242256	0.214190	0.763404
14.290000	-0.121962	0.092739	-0.027373
14.300000	-0.041483	0.254568	1.237442
14.310000	0.079321	0.093057	0.447322
14.320000	-0.001667	0.173494	-0.027209
14.330000	-0.363909	0.093057	0.922016
14.340000	-0.162286	0.094011	0.923328
14.350000	-0.041483	0.053633	0.289036
14.360000	0.079321	0.133752	0.289199
14.370000	-0.282750	0.334688	0.921526
14.380000	-0.162116	0.375384	0.921689
14.390000	-0.001328	0.335324	0.131077
14.400000	-0.242596	0.133752	0.447977
14.410000	-0.161947	0.214826	-0.660189
14.420000	-0.121792	0.013891	0.764059
14.430000	-0.202781	0.294946	-0.342962
14.440000	-0.082147	0.415761	0.289855
14.450000	-0.121792	0.214508	-0.343289
14.460000	0.038997	0.294628	1.079811
14.470000	-0.000649	0.173812	1.553195
14.480000	-0.081468	0.294628	0.922508
14.490000	-0.121283	0.294628	0.606428
14.500000	-0.081637	0.254568	-0.658879
14.510000	-0.041652	0.496199	0.764059
14.520000	-0.121962	0.052679	0.921034
14.530000	-0.202611	0.295264	-0.028028
14.540000	0.119985	0.093375	0.764223
14.550000	-0.000819	0.455821	-0.500920
14.560000	-0.121792	0.012301	1.554506
14.570000	-0.001158	0.093693	0.605280
14.580000	-0.001158	0.414807	0.605936
14.590000	-0.081637	0.294628	0.762911
14.600000	-0.242426	0.214190	-0.027045
14.610000	-0.000819	0.174766	0.447322
14.620000	-0.000649	0.335006	1.554342
14.630000	-0.000988	0.255204	0.446667
14.640000	-0.001328	0.295264	1.395728
14.650000	0.240280	0.293992	-0.341651
14.660000	-0.202101	0.053633	-0.343617
14.670000	0.039336	0.094329	-0.502067
14.680000	-0.041652	0.213554	1.080631
14.690000	-0.000819	0.214508	0.131733
14.700000	0.119476	0.133752	0.921689
14.710000	-0.162116	0.254886	0.605936
14.720000	0.039336	0.416079	0.763731
14.730000	-0.081468	0.133752	-0.184184
14.740000	-0.081637	0.094329	1.238589
14.750000	-0.041483	0.294946	-0.026881
14.760000	-0.081468	0.335006	1.236950
14.770000	0.119476	0.334688	0.131733
14.780000	0.038997	0.213554	-0.501903
14.790000	-0.081468	0.375065	1.396711
14.800000	-0.202441	0.294310	0.289200
14.810000	0.039336	0.053315	-0.658387
14.820000	0.119815	0.094011	-0.184840
14.830000	-0.162116	0.294628	0.446667
14.840000	-0.081807	0.174448	2.344953
14.850000	-0.282750	0.134388	1.238425
14.860000	-0.242765	0.294946	1.869931
14.870000	-0.162116	0.295264	0.764878
14.880000	-0.162286	0.254886	0.606100
14.890000	-0.242256	0.094329	0.289364
14.900000	-0.121792	0.375065	0.922836
14.910000	0.039166	0.415761	0.763075
14.920000	-0.041483	0.335642	3.135565
14.930000	-0.161947	0.334688	0.289364
14.940000	-0.282411	0.012619	0.288872
14.950000	-0.322905	0.094329	0.605117
14.960000	-0.041483	0.255204	1.870259
14.970000	-0.161947	0.375702	0.764386
14.980000	0.200464	0.456139	1.554342
14.990000	-0.001328	0.335324	0.921525
