BioWare Version 5.4.9.0 Export
Device:	ISO Leg Press (NEW) 9281CA (SN<616902)	ISO Leg Press (NEW) 9281CA (SN<616902)	ISO Leg Press (NEW) 9281CA (SN<616902)
Samples (#):	1500	1500	1500
Rate (Hz):	100.000000	100.000000	100.000000
Contact period start (sample #):	0	0	0
Contact period end (sample #):	918	918	918
Contact period start time (s):	0.000000	0.000000	0.000000
Contact period end time (s):	9.180000	9.180000	9.180000
First sample time (s):	0.000000	0.000000	0.000000
Normalized force (N):	800.000000	800.000000	800.000000
Normalized length (m):	1.000000	1.000000	1.000000
File Information
Date	Oct 13, 2024  11:30:49
Name	
ID	
Classification	
Description	
abs time (s)	Fx	Fy	Fz
	N	N	N
0.000000	48.426249	3.030463	68.840196
0.010000	48.225138	3.070204	69.631462
0.020000	47.782587	3.351577	71.054890
0.030000	48.023344	3.391637	72.161419
0.040000	47.701767	3.069251	71.370807
0.050000	47.662291	2.787241	72.794726
0.060000	47.743111	2.705532	72.794070
0.070000	47.541826	2.904877	72.952192
0.080000	47.542168	2.824757	75.006963
0.090000	47.702955	2.825711	73.743460
0.100000	47.863914	2.462947	73.584846
0.110000	48.025721	2.663882	73.584354
0.120000	47.985228	2.662610	73.584026
0.130000	47.783773	3.025374	74.058722
0.140000	47.623325	3.145872	73.584848
0.150000	47.622816	3.104858	72.320195
0.160000	47.663651	2.985950	70.580852
0.170000	47.944735	3.066070	69.473666
0.180000	47.944735	3.186568	70.738482
0.190000	47.662632	3.066070	69.316037
0.200000	47.260576	3.025374	68.842651
0.210000	47.341053	2.865453	69.950164
0.220000	47.219740	2.905831	69.001431
0.230000	47.461178	2.664836	68.052204
0.240000	47.662632	2.503643	68.211473
0.250000	47.743280	2.706168	68.208361
0.260000	47.622137	2.666108	70.265425
0.270000	47.823420	2.786606	70.107467
0.280000	47.862896	3.108038	69.317511
0.290000	47.984209	3.149052	71.529092
0.300000	48.265291	3.270186	70.264935
0.310000	48.063499	3.391637	71.687543
0.320000	47.702106	3.592890	71.530238
0.330000	47.460499	3.351895	70.581836
0.340000	47.540640	3.392909	71.847303
0.350000	47.782755	3.794462	71.214651
0.360000	47.701088	3.875217	70.582000
0.370000	47.661781	3.755038	72.163220
0.380000	47.701427	4.076152	70.423059
0.390000	47.983191	4.235756	71.055055
0.400000	48.426590	4.196014	70.265918
0.410000	48.305616	4.036411	69.473996
0.420000	49.070253	4.156272	69.158407
0.430000	49.311352	4.437009	69.158405
0.440000	49.593454	4.155954	66.944366
0.450000	49.633778	4.113986	67.102980
0.460000	49.875385	4.395359	66.313025
0.470000	49.996019	3.912733	64.889432
0.480000	50.479403	4.434783	64.416049
0.490000	50.277950	4.234484	62.518419
0.500000	50.398924	4.113668	62.993113
0.510000	50.600037	3.631042	61.253931
0.520000	50.317936	3.671738	59.989279
0.530000	50.318445	3.511181	59.355970
0.540000	50.237965	3.390365	57.775895
0.550000	50.238136	3.390683	58.092304
0.560000	50.157488	3.228218	56.827982
0.570000	49.875895	2.947799	57.144389
0.580000	49.312880	2.946209	58.883407
0.590000	48.749525	3.147462	59.989935
0.600000	48.467422	2.825711	60.148222
0.610000	48.105352	3.104858	62.520875
0.620000	48.065367	2.905831	65.049028
0.630000	47.461687	3.148098	67.104782
0.640000	46.496107	3.147462	70.108613
0.650000	45.288410	3.188794	74.377425
0.660000	44.563929	2.947481	78.015057
0.670000	44.523603	2.746864	80.070154
0.680000	44.845179	2.547519	83.074314
0.690000	44.844669	2.547201	85.445328
0.700000	45.166588	2.750680	87.816345
0.710000	45.487995	2.751316	90.029892
0.720000	45.689787	2.790104	90.820179
0.730000	45.810591	2.910601	92.085155
0.740000	45.328394	2.868951	94.140251
0.750000	44.081053	2.949707	95.089968
0.760000	42.712736	3.151278	94.301327
0.770000	41.143986	3.272094	95.882874
0.780000	39.211975	3.270504	99.045647
0.790000	36.033470	3.028237	104.107035
0.800000	32.573203	2.904877	111.221718
0.810000	30.158998	3.105176	118.022615
0.820000	27.985720	3.466351	128.141619
0.830000	26.335640	3.466351	139.680941
0.840000	25.046785	3.989354	151.854391
0.850000	23.115454	3.749632	166.557144
0.860000	21.465036	3.749950	181.101120
0.870000	19.854943	3.549332	200.073170
0.880000	17.600676	3.751540	216.832005
0.890000	15.991092	3.712116	234.378819
0.900000	14.261384	3.713388	252.085728
0.910000	13.013532	3.513407	269.475250
0.920000	11.766698	3.755038	284.652866
0.930000	9.473974	3.874581	299.512253
0.940000	6.657202	4.155954	312.479439
0.950000	3.841109	4.799138	324.809532
0.960000	2.391975	5.883933	335.086170
0.970000	0.178711	6.409800	345.362804
0.980000	-1.230269	5.970731	355.955528
0.990000	-2.438136	5.491603	367.810928
1.000000	-3.163468	5.334226	376.664139
1.010000	-3.888630	5.536433	386.147713
1.020000	-3.768505	5.857866	397.369965
1.030000	-4.130407	6.379280	409.855080
1.040000	-4.774580	7.021509	421.234474
1.050000	-3.528256	7.341034	433.875740
1.060000	-1.717728	6.817712	446.202072
1.070000	-0.269612	6.173256	458.843513
1.080000	1.259832	5.248700	472.590973
1.090000	2.546651	4.204918	488.077133
1.100000	2.544783	3.765850	503.882141
1.110000	1.657304	3.409128	518.737282
1.120000	-0.475649	4.174399	534.702881
1.130000	-0.798075	5.701443	548.770531
1.140000	-2.487460	7.467573	562.048706
1.150000	-2.726180	8.673503	576.118134
1.160000	-3.935236	9.401258	587.814941
1.170000	-5.706118	9.805673	603.623566
1.180000	-5.787446	10.212313	613.264908
1.190000	-6.512269	10.696211	623.066711
1.200000	-7.839921	11.541602	630.969208
1.210000	-8.806011	11.905957	643.930649
1.220000	-11.020292	12.391127	650.887207
1.230000	-10.135870	12.633394	655.630386
1.240000	-8.566102	12.636257	656.421494
1.250000	-7.922607	11.871622	658.952606
1.260000	-11.141605	11.469434	660.378632
1.270000	-14.482426	11.312056	663.068024
1.280000	-19.271364	11.353070	669.396851
1.290000	-22.008845	12.279534	672.403305
1.300000	-22.974426	12.600967	680.149155
1.310000	-24.826297	12.923672	689.635529
1.320000	-26.114304	12.362198	699.120392
1.330000	-26.033654	12.805719	707.340805
1.340000	-26.155478	12.928760	716.193024
1.350000	-28.690996	12.527844	721.727798
1.360000	-31.629251	12.890608	728.371063
1.370000	-34.767771	13.292796	732.642975
1.380000	-38.469643	13.374507	736.757614
1.390000	-41.607992	13.857450	743.243240
1.400000	-45.309866	14.742901	752.890167
1.410000	-49.333147	17.115018	764.116699
1.420000	-51.708218	20.772229	773.918961
1.430000	-51.104879	22.144758	787.039001
1.440000	-51.509312	23.114145	802.056046
1.450000	-53.159222	24.202439	814.229156
1.460000	-56.660492	24.766456	829.405304
1.470000	-60.243258	25.286915	839.052719
1.480000	-62.013460	25.290732	846.169846
1.490000	-64.631155	26.376482	854.710434
1.500000	-66.804434	27.060043	860.405121
1.510000	-68.575487	27.705451	864.521225
1.520000	-71.192165	28.027839	872.746384
1.530000	-74.533154	27.547756	881.128967
1.540000	-77.713188	27.066403	891.568314
1.550000	-80.329185	27.064178	897.580887
1.560000	-80.489468	26.819685	902.485611
1.570000	-79.121323	26.657218	902.648682
1.580000	-78.437160	27.016166	902.176605
1.590000	-79.119961	27.049231	898.230408
1.600000	-80.768681	27.207243	888.909073
1.610000	-84.269783	28.449733	884.329742
1.620000	-86.483555	29.812405	877.854752
1.630000	-85.678421	29.890935	871.058624
1.640000	-82.217476	30.287716	866.157318
1.650000	-78.354305	31.128972	860.621078
1.660000	-75.495510	30.523940	854.925537
1.670000	-72.840546	30.600561	847.651276
1.680000	-72.396637	30.236208	841.166107
1.690000	-71.552536	30.474658	833.102554
1.700000	-69.459909	30.475931	825.037476
1.710000	-67.528238	30.713428	816.500854
1.720000	-66.038950	31.112435	809.069260
1.730000	-65.316671	30.470524	804.166992
1.740000	-65.115898	30.549372	801.951141
1.750000	-65.397829	30.546827	799.261581
1.760000	-64.271801	30.706749	796.728027
1.770000	-63.064274	31.025318	796.409653
1.780000	-61.132601	31.145179	794.351105
1.790000	-58.839033	30.623448	797.352005
1.800000	-57.913607	31.586155	794.818604
1.810000	-57.310776	32.227750	796.396729
1.820000	-56.666943	31.948285	797.501114
1.830000	-57.069677	31.585202	796.393906
1.840000	-57.593218	30.984305	792.914581
1.850000	-57.472242	31.021821	793.704697
1.860000	-57.351101	31.220848	794.335556
1.870000	-57.351271	31.541644	795.441757
1.880000	-55.540064	31.983256	793.386002
1.890000	-53.648037	32.304688	792.119064
1.900000	-52.240078	31.983574	788.008530
1.910000	-50.590340	31.584249	779.157928
1.920000	-50.267403	31.183014	768.728256
1.930000	-51.997622	30.862854	760.986008
1.940000	-53.164654	30.665417	755.927719
1.950000	-52.681608	29.745313	750.392471
1.960000	-52.198734	28.943799	748.968887
1.970000	-50.307556	27.421843	751.178818
1.980000	-46.122299	27.302618	748.645264
1.990000	-43.143888	26.660707	747.694061
2.000000	-41.734060	25.455413	745.006149
2.010000	-41.974310	25.577819	741.368362
2.020000	-42.657619	23.692780	737.730743
2.030000	-41.973461	22.127267	734.253525
2.040000	-40.887754	22.209294	732.828293
2.050000	-39.236998	21.408416	732.508270
2.060000	-36.781958	21.447840	736.928818
2.070000	-33.842854	21.928240	739.768143
2.080000	-30.421214	21.844940	743.240112
2.090000	-27.161552	21.564203	743.076096
2.100000	-24.504889	20.800840	741.175354
2.110000	-22.734517	19.715727	740.066360
2.120000	-22.009524	18.551129	739.904816
2.130000	-22.453603	17.788085	742.114731
2.140000	-23.259754	16.906450	749.226303
2.150000	-22.415317	16.065829	756.020020
2.160000	-21.209147	15.826425	762.496964
2.170000	-19.841849	15.829604	771.187317
2.180000	-17.950333	15.429960	779.720169
2.190000	-18.072155	15.351749	793.310654
2.200000	-19.723083	14.188742	811.327774
2.210000	-22.702342	12.744998	830.612122
2.220000	-23.629296	11.504415	853.689133
2.230000	-24.354967	10.585902	880.404434
2.240000	-25.281751	10.025700	909.489563
2.250000	-26.851521	9.748780	940.476135
2.260000	-29.829929	9.876910	970.673721
2.270000	-34.418604	10.007584	1005.618607
2.280000	-39.086228	10.897487	1033.767960
2.290000	-44.074919	10.741063	1066.187469
2.300000	-49.908558	9.982789	1094.026337
2.310000	-55.541761	9.592049	1118.076477
2.320000	-62.101238	8.838545	1147.180939
2.330000	-68.297968	8.645243	1169.964172
2.340000	-76.385536	9.816836	1194.168518
2.350000	-82.904182	12.310722	1216.792404
2.360000	-88.335594	13.998640	1231.034943
2.370000	-92.076603	14.563295	1249.860016
2.380000	-95.173950	15.691965	1263.624496
2.390000	-98.351948	16.334196	1273.910629
2.400000	-99.397156	17.257162	1281.346786
2.410000	-103.582413	17.582093	1288.469025
2.420000	-105.996449	18.626510	1297.011398
2.430000	-107.645679	19.062717	1302.236603
2.440000	-111.827541	20.022244	1306.987152
2.450000	-115.689354	21.347398	1313.001221
2.460000	-117.699978	22.112034	1316.964264
2.470000	-119.792099	23.520171	1318.548920
2.480000	-121.360847	25.089182	1318.712143
2.490000	-122.687313	26.249963	1314.290298
2.500000	-122.605644	25.926940	1311.127182
2.510000	-120.712090	24.155404	1303.856018
2.520000	-119.502865	22.383865	1298.315979
2.530000	-115.798954	19.490335	1299.728638
2.540000	-110.930386	17.841840	1293.711792
2.550000	-107.909275	17.157324	1286.270691
2.560000	-104.005779	16.353583	1282.308655
2.570000	-101.709656	15.711355	1274.397766
2.580000	-101.748795	13.744608	1268.066833
2.590000	-100.095657	9.076995	1264.584045
2.600000	-100.617840	6.135137	1255.571243
2.610000	-102.144569	6.405379	1250.037125
2.620000	-102.262997	5.591461	1247.030502
2.630000	-102.665901	5.869972	1246.078995
2.640000	-103.106926	7.676163	1250.346130
2.650000	-103.671127	8.323798	1250.029907
2.660000	-104.395439	9.612074	1253.503998
2.670000	-104.354607	10.383704	1258.403656
2.680000	-104.073524	10.991599	1259.509995
2.690000	-102.824482	11.959394	1259.823288
2.700000	-101.818409	13.570057	1256.503098
2.710000	-102.743835	13.250215	1254.605484
2.720000	-101.979027	14.652944	1252.390121
2.730000	-102.985100	18.306975	1254.440125
2.740000	-101.615429	16.894386	1258.386292
2.750000	-100.810127	20.990030	1261.066360
2.760000	-98.753235	21.020231	1263.109314
2.770000	-94.205399	27.237773	1263.888458
2.780000	-91.950962	31.408765	1259.134491
2.790000	-86.681358	34.689537	1255.959229
2.800000	-82.009995	38.242775	1248.203888
2.810000	-79.430248	38.699007	1241.085785
2.820000	-78.903656	39.236630	1236.182007
2.830000	-78.214062	36.840662	1226.222748
2.840000	-78.896862	33.725525	1221.162186
2.850000	-77.928398	29.609209	1220.368149
2.860000	-75.069260	26.055005	1217.040665
2.870000	-72.168785	23.621839	1212.290802
2.880000	-68.743578	20.468869	1209.909256
2.890000	-65.883255	16.912757	1208.949905
2.900000	-63.706412	13.721953	1209.256638
2.910000	-61.892152	7.452902	1206.875626
2.920000	-59.314097	12.495033	1198.489426
2.930000	-59.553160	10.717136	1195.641434
2.940000	-56.979182	6.942926	1188.994553
2.950000	-54.246285	7.874479	1185.668915
2.960000	-53.237664	7.797541	1181.709137
2.970000	-51.107427	11.942783	1179.649780
2.980000	-52.073178	14.279610	1172.534302
2.990000	-51.350054	12.123377	1167.157959
3.000000	-51.593529	14.349563	1161.623840
3.010000	-51.672479	15.447080	1160.985657
3.020000	-49.657444	15.780915	1156.391083
3.030000	-47.238144	18.240784	1157.804840
3.040000	-44.178236	21.425228	1159.216614
3.050000	-40.516858	22.165704	1159.998749
3.060000	-38.826793	23.385944	1160.306122
3.070000	-38.143146	24.763560	1161.569000
3.080000	-37.499820	24.536559	1161.724335
3.090000	-37.982695	23.704524	1161.721710
3.100000	-37.340558	24.117526	1163.614105
3.110000	-35.650835	24.769933	1163.770248
3.120000	-33.800324	26.339580	1159.814590
3.130000	-32.511468	28.148314	1158.704407
3.140000	-32.752225	27.465390	1162.017151
3.150000	-32.149056	24.974049	1167.701706
3.160000	-30.298035	22.355848	1169.118698
3.170000	-28.728093	21.664655	1169.113785
3.180000	-26.355400	20.813221	1167.209946
3.190000	-25.187010	18.637269	1163.884628
3.200000	-22.088985	19.391091	1160.403976
3.210000	-22.651149	20.949608	1160.871140
3.220000	-22.207410	21.985757	1161.499344
3.230000	-22.849717	22.817474	1166.395096
3.240000	-22.201468	23.127457	1173.346268
3.250000	-20.750126	25.324070	1177.609985
3.260000	-21.551352	27.359806	1183.776733
3.270000	-20.906330	29.840018	1186.467087
3.280000	-22.754467	31.556865	1187.261505
3.290000	-24.443005	33.396118	1187.738678
3.300000	-25.526670	34.513027	1189.162582
3.310000	-24.960938	35.828639	1194.222672
3.320000	-24.555318	37.861514	1196.913834
3.330000	-23.469103	40.179577	1201.975723
3.340000	-23.549581	41.855096	1205.934174
3.350000	-23.792378	44.092083	1211.628372
3.360000	-25.521916	44.725728	1219.851883
3.370000	-26.405320	43.108704	1221.597122
3.380000	-28.054547	43.462247	1226.028305
3.390000	-28.900515	44.667222	1225.718277
3.400000	-31.717458	44.426227	1223.037903
3.410000	-33.206747	44.788992	1221.147644
3.420000	-33.529853	45.635335	1222.577759
3.430000	-36.064691	45.150485	1222.108337
3.440000	-35.501338	44.221475	1223.851593
3.450000	-33.286378	43.130637	1226.539825
3.460000	-32.237432	43.524875	1226.698151
3.470000	-30.951292	44.566112	1230.018066
3.480000	-33.124228	45.646456	1230.652008
3.490000	-35.378837	47.249805	1231.287140
3.500000	-35.904754	48.774618	1232.078217
3.510000	-38.197478	49.450232	1232.712677
3.520000	-36.910658	49.928095	1235.718170
3.530000	-36.790365	50.609110	1236.037018
3.540000	-37.314921	52.092913	1231.931885
3.550000	-40.133563	54.623998	1231.619904
3.560000	-41.905462	57.115975	1230.828156
3.570000	-41.503915	57.674901	1233.199341
3.580000	-38.929258	59.479185	1237.780121
3.590000	-36.233459	61.964168	1241.887024
3.600000	-35.188757	64.815409	1247.574860
3.610000	-36.558434	66.664207	1251.843811
3.620000	-38.009435	68.633499	1256.271912
3.630000	-39.702046	69.795867	1260.066193
3.640000	-38.374735	69.551057	1258.643555
3.650000	-35.396665	68.260561	1257.534943
3.660000	-32.497545	66.809177	1255.318604
3.670000	-30.848485	64.717480	1253.895142
3.680000	-31.573817	63.154832	1254.841766
3.690000	-32.581758	61.956532	1251.998016
3.700000	-34.919223	60.240007	1251.525452
3.710000	-35.564582	58.079003	1249.158386
3.720000	-35.849570	55.516124	1246.633514
3.730000	-36.414284	54.077467	1246.479645
3.740000	-36.816340	54.643081	1250.433044
3.750000	-38.586202	57.135691	1255.808868
3.760000	-39.271719	60.759204	1261.027710
3.770000	-38.347652	63.497585	1264.820801
3.780000	-37.222473	64.710508	1267.982605
3.790000	-36.055099	63.874977	1271.933716
3.800000	-36.094914	62.433778	1276.359833
3.810000	-36.174883	61.916494	1282.207397
3.820000	-37.543032	63.291891	1285.527313
3.830000	-38.469986	65.230344	1290.110107
3.840000	-36.982053	67.248597	1294.374146
3.850000	-34.690009	67.296602	1296.112518
3.860000	-33.725276	66.820342	1301.641724
3.870000	-34.934334	65.095223	1305.912964
3.880000	-36.868721	63.775154	1310.183746
3.890000	-39.003202	63.661020	1310.977478
3.900000	-41.943494	64.873307	1310.351532
3.910000	-43.434482	66.165082	1315.570374
3.920000	-42.348608	66.565999	1320.154297
3.930000	-40.898625	63.869905	1318.733643
3.940000	-41.058224	61.817950	1315.888275
3.950000	-40.454546	59.563786	1314.306213
3.960000	-39.166875	58.234815	1309.882050
3.970000	-38.000353	58.189032	1304.979645
3.980000	-33.657191	59.633409	1299.917450
3.990000	-30.477327	61.309563	1293.435699
4.000000	-27.579228	62.180387	1287.107880
4.010000	-24.237728	61.966094	1280.462982
4.020000	-21.458055	61.510489	1273.976044
4.030000	-18.439321	60.501366	1265.751892
4.040000	-17.633000	60.259415	1260.214813
4.050000	-14.091745	60.179930	1260.997375
4.060000	-10.148942	59.220400	1260.673462
4.070000	-8.739624	58.824888	1259.720337
4.080000	-5.962667	58.505679	1260.346893
4.090000	-3.586239	58.141007	1258.921509
4.100000	-1.091383	58.498683	1261.445099
4.110000	0.800642	59.819712	1261.758026
4.120000	2.450550	61.505720	1260.807831
4.130000	2.169128	62.387353	1259.700806
4.140000	1.607302	61.541645	1261.438812
4.150000	2.169297	61.181426	1261.911713
4.160000	2.853116	60.660651	1266.335907
4.170000	2.609641	60.304246	1269.812286
4.180000	2.286706	60.548416	1270.918335
4.190000	1.803492	61.154407	1271.549652
4.200000	1.843306	62.483055	1272.971466
4.210000	3.373939	63.771333	1272.493469
4.220000	5.588390	64.375729	1269.013519
4.230000	5.346952	64.655832	1267.908600
4.240000	3.094045	65.175019	1267.753418
4.250000	1.040892	65.774323	1266.336395
4.260000	-1.331121	67.412010	1264.127747
4.270000	-1.691326	69.086885	1261.603363
4.280000	-2.010187	70.321750	1257.184448
4.290000	-2.167240	72.115216	1254.031525
4.300000	-3.088930	72.629635	1248.349701
4.310000	-4.856926	73.545922	1240.138367
4.320000	-6.826544	73.340219	1236.982452
4.330000	-5.980919	72.173707	1238.881714
4.340000	-4.410131	71.326411	1238.412598
4.350000	-4.569221	70.833295	1239.368713
4.360000	-5.814528	71.665644	1244.436493
4.370000	-9.434732	72.420419	1249.346313
4.380000	-13.259956	72.860438	1251.885284
4.390000	-15.674164	72.174338	1253.791595
4.400000	-16.356963	71.045661	1252.848236
4.410000	-16.116375	70.004111	1253.798798
4.420000	-15.995231	68.723785	1251.429260
4.430000	-16.235819	68.368019	1252.057983
4.440000	-16.797816	69.098950	1255.535370
4.450000	-16.838650	70.910869	1261.066345
4.460000	-18.045156	72.835330	1265.022034
4.470000	-19.774361	73.232113	1268.822205
4.480000	-21.625210	72.388308	1272.622406
4.490000	-24.157165	70.659379	1274.523956
4.500000	-26.610340	69.053488	1278.003296
4.510000	-27.978147	68.256424	1280.692841
4.520000	-28.462888	67.986814	1283.538391
4.530000	-28.544046	68.918371	1288.279266
4.540000	-29.025394	69.084012	1294.444550
4.550000	-30.312210	68.963834	1300.134979
4.560000	-32.200163	69.125030	1306.616577
4.570000	-33.043921	68.247526	1310.573730
4.580000	-33.968836	66.809825	1308.365601
4.590000	-35.174668	66.174596	1305.212280
4.600000	-35.619765	65.423318	1301.740295
4.610000	-37.270353	64.223431	1299.375732
4.620000	-40.690123	62.415966	1293.537109
4.630000	-44.713065	59.560272	1290.382721
4.640000	-45.796902	56.222901	1286.592041
4.650000	-45.030908	53.566870	1283.747803
4.660000	-43.539582	51.635406	1284.693573
4.670000	-39.795004	50.065762	1280.107208
4.680000	-36.333040	49.343729	1272.202576
4.690000	-36.171233	49.983411	1269.197083
4.700000	-36.612428	51.663386	1264.140472
4.710000	-37.375367	52.982181	1257.344971
4.720000	-39.387344	53.980178	1252.758453
4.730000	-37.331984	55.619768	1253.857941
4.740000	-35.158367	57.858986	1254.008972
4.750000	-32.743651	59.101793	1256.841949
4.760000	-29.361998	59.503345	1259.677673
4.770000	-26.020666	59.302727	1261.087677
4.780000	-22.599535	58.907215	1259.497101
4.790000	-19.539627	58.510756	1261.067871
4.800000	-17.326195	58.033849	1265.169708
4.810000	-15.957031	58.035128	1265.008759
4.820000	-18.691793	58.550810	1265.800323
4.830000	-20.582634	59.506843	1271.175201
4.840000	-23.116455	59.176825	1274.339935
4.850000	-23.760118	58.610895	1278.451111
4.860000	-21.909946	57.527372	1278.136200
4.870000	-19.256680	58.252272	1276.710968
4.880000	-19.657545	57.810019	1276.077667
4.890000	-19.900511	59.297319	1274.021057
4.900000	-21.349476	61.029120	1272.754608
4.910000	-21.951626	62.475720	1272.279419
4.920000	-22.674751	63.836802	1275.596893
4.930000	-23.437860	63.918198	1283.658356
4.940000	-23.157627	62.873775	1294.091797
4.950000	-25.934925	61.306042	1300.578766
4.960000	-29.073784	59.817785	1302.327789
4.970000	-30.924467	58.613762	1295.381195
4.980000	-30.439892	58.089804	1286.855194
4.990000	-32.250080	57.448212	1281.171844
5.000000	-34.664287	57.371586	1279.120819
5.010000	-36.796898	57.458389	1280.386414
5.020000	-39.935590	58.393435	1287.024139
5.030000	-41.948418	58.565440	1296.980652
5.040000	-41.223766	57.007562	1305.834595
5.050000	-41.746286	57.209135	1314.218903
5.060000	-46.495408	58.018279	1321.976837
5.070000	-55.391843	59.470926	1328.634216
5.080000	-63.803023	60.443816	1331.810425
5.090000	-70.605970	62.062103	1332.141418
5.100000	-74.711428	62.512623	1330.256561
5.110000	-76.601587	62.278939	1325.526306
5.120000	-77.970583	62.128237	1322.532318
5.130000	-80.546088	62.661739	1319.851105
5.140000	-84.652059	62.271952	1317.958405
5.150000	-89.484204	61.524172	1309.586792
5.160000	-93.753674	61.060628	1295.843079
5.170000	-95.811411	60.075350	1270.403076
5.180000	-98.797802	59.176553	1243.857880
5.190000	-104.603512	57.876207	1220.632217
5.200000	-108.596653	55.845558	1197.561600
5.210000	-111.739586	54.683823	1183.653091
5.220000	-114.314919	54.873628	1177.804840
5.230000	-112.262451	54.303885	1173.376129
5.240000	-110.291302	53.774839	1174.793823
5.250000	-108.281021	52.729785	1178.266113
5.260000	-108.000786	52.571771	1179.212555
5.270000	-111.102375	53.261692	1182.056152
5.280000	-114.283939	53.433381	1182.847900
5.290000	-116.900444	53.723341	1182.530807
5.300000	-116.702389	52.529179	1186.004929
5.310000	-115.819153	50.887998	1189.480347
5.320000	-115.417946	49.923698	1196.115936
5.330000	-114.451519	49.556164	1208.915817
5.340000	-113.607418	49.667756	1221.242111
5.350000	-114.371544	48.857656	1237.518860
5.360000	-115.618721	48.332745	1253.165314
5.370000	-117.752522	47.330613	1265.177704
5.380000	-119.040699	46.050607	1273.717773
5.390000	-119.485626	45.776229	1278.463715
5.400000	-120.735172	44.981711	1284.790436
5.410000	-120.695869	44.826560	1290.639954
5.420000	-121.260410	44.667274	1300.757813
5.430000	-122.103493	44.665368	1305.501648
5.440000	-122.745632	44.218665	1306.768280
5.450000	-123.627335	45.218254	1313.253235
5.460000	-124.229824	44.740080	1319.263519
5.470000	-126.243336	42.181657	1320.378754
5.480000	-129.542637	40.903559	1319.122620
5.490000	-131.716259	39.668700	1317.708496
5.500000	-133.527294	39.239810	1315.028641
5.510000	-133.930882	40.654942	1312.822617
5.520000	-134.090988	42.874134	1308.406647
5.530000	-136.143635	44.452686	1304.308563
5.540000	-137.433334	44.144291	1300.367630
5.550000	-138.924496	41.905712	1289.159668
5.560000	-142.871033	38.781682	1278.270035
5.570000	-145.973469	34.812897	1270.065842
5.580000	-149.597755	32.483703	1261.860504
5.590000	-156.117920	31.759445	1256.339020
5.600000	-159.301865	30.557332	1250.496521
5.610000	-161.398232	29.317067	1247.180710
5.620000	-162.204887	29.116768	1249.237427
5.630000	-159.186493	28.189668	1253.501190
5.640000	-156.492226	27.222827	1254.917709
5.650000	-155.205238	27.016166	1258.709045
5.660000	-156.493584	27.094379	1261.870667
5.670000	-157.700600	28.415716	1260.921280
5.680000	-157.661125	29.097052	1261.236877
5.690000	-159.512489	27.494977	1263.766510
5.700000	-160.115822	26.053459	1268.980438
5.710000	-161.081917	25.296138	1278.618195
5.720000	-160.035172	25.781627	1291.732849
5.730000	-159.673447	27.632329	1308.644211
5.740000	-160.800667	29.841343	1320.184555
5.750000	-161.042610	30.443830	1327.142227
5.760000	-160.842178	29.276372	1333.308182
5.770000	-163.014771	26.940499	1338.210312
5.780000	-164.180450	25.286598	1342.637558
5.790000	-166.596352	24.677431	1342.639511
5.800000	-167.198845	25.674476	1347.067307
5.810000	-167.319313	27.600208	1349.911362
5.820000	-166.072304	28.643037	1350.543869
5.830000	-164.783447	28.359756	1350.544815
5.840000	-162.812134	27.157961	1347.068588
5.850000	-161.766418	25.233817	1336.955475
5.860000	-161.043633	23.788482	1328.580887
5.870000	-163.098648	24.433892	1315.625671
5.880000	-166.035881	23.989736	1306.463455
5.890000	-166.399651	23.911524	1298.720215
5.900000	-167.606163	23.265798	1292.874100
5.910000	-165.995224	22.614663	1291.607498
5.920000	-161.972282	21.930148	1288.758987
5.930000	-158.433403	21.166785	1287.330643
5.940000	-158.435776	20.679707	1286.535934
5.950000	-158.195190	21.041199	1284.475937
5.960000	-158.958809	21.634146	1278.304398
5.970000	-157.349564	22.311666	1276.559158
5.980000	-155.778099	22.384152	1272.129623
5.990000	-154.693077	21.620471	1269.911606
6.000000	-152.723457	20.817367	1268.959442
6.010000	-151.959328	20.293727	1268.639587
6.020000	-150.351097	19.967206	1267.211761
6.030000	-149.625771	20.319793	1268.155914
6.040000	-147.813545	19.387922	1264.356232
6.050000	-146.566200	19.421940	1260.240936
6.060000	-147.208679	19.414626	1255.335907
6.070000	-146.929802	20.537890	1253.429062
6.080000	-145.522346	21.256105	1251.362350
6.090000	-142.103424	21.169943	1253.721741
6.100000	-136.310280	20.802089	1251.813766
6.110000	-132.969627	20.386545	1249.750305
6.120000	-129.387371	21.946652	1248.164520
6.130000	-128.058868	23.267990	1245.635193
6.140000	-128.782501	24.800440	1243.897018
6.150000	-132.285130	27.137586	1243.111160
6.160000	-134.013988	27.587466	1245.484634
6.170000	-133.572285	27.839273	1250.227997
6.180000	-131.399178	27.004378	1252.596191
6.190000	-128.820446	26.441631	1255.595108
6.200000	-126.686817	26.526204	1259.225876
6.210000	-125.477253	26.643202	1268.072815
6.220000	-125.075539	27.766469	1275.342255
6.230000	-126.484348	27.165252	1277.239868
6.240000	-127.451794	26.359604	1282.142639
6.250000	-127.049736	25.152084	1282.778046
6.260000	-127.049568	23.060069	1281.834244
6.270000	-126.928936	21.896427	1278.677841
6.280000	-128.380447	20.698766	1280.893555
6.290000	-130.593544	20.460633	1281.369873
6.300000	-130.794140	21.987678	1283.738937
6.310000	-128.903141	23.721699	1286.422241
6.320000	-126.810513	24.652297	1287.367859
6.330000	-125.403397	25.381642	1286.103897
6.340000	-126.489609	26.550375	1277.887878
6.350000	-128.583599	27.557594	1272.675598
6.360000	-131.400539	29.927166	1273.152283
6.370000	-133.451313	32.455706	1271.888412
6.380000	-135.101391	35.106015	1276.787094
6.390000	-135.140869	35.869060	1279.311646
6.400000	-132.686337	36.028344	1283.577515
6.410000	-130.753651	35.144485	1280.415527
6.420000	-129.185413	33.937920	1278.042084
6.430000	-127.817436	32.329165	1270.609192
6.440000	-127.857418	32.082764	1266.023956
6.450000	-128.136463	32.236644	1260.961929
6.460000	-128.499554	32.432809	1255.267380
6.470000	-126.807789	32.747562	1254.313416
6.480000	-124.954224	32.377482	1252.887695
6.490000	-124.029987	30.807199	1258.729858
6.500000	-121.252861	29.641966	1262.833664
6.510000	-119.844563	29.316081	1267.092987
6.520000	-119.241905	30.242227	1269.458618
6.530000	-118.437450	30.198987	1265.661041
6.540000	-116.990353	30.559525	1262.814362
6.550000	-116.992897	29.922384	1258.702850
6.560000	-118.481171	28.793396	1253.483673
6.570000	-118.400349	28.508842	1255.372635
6.580000	-116.187767	29.107832	1260.103973
6.590000	-112.684292	30.747104	1267.838547
6.600000	-108.459553	32.068760	1276.044861
6.610000	-103.508129	33.186620	1281.251617
6.620000	-101.493946	34.864362	1285.512207
6.630000	-101.253696	34.140105	1287.722168
6.640000	-101.655071	33.533166	1288.351227
6.650000	-102.904285	34.211956	1285.819946
6.660000	-103.789383	34.528937	1282.179016
6.670000	-102.301113	35.769837	1281.539337
6.680000	-101.295547	37.092129	1285.642120
6.690000	-99.445206	36.766879	1287.529114
6.700000	-96.507797	36.561492	1287.046234
6.710000	-94.493950	34.749898	1293.355225
6.720000	-89.586418	34.349933	1295.083435
6.730000	-85.966385	34.152181	1290.967194
6.740000	-83.833595	33.667327	1281.957001
6.750000	-82.546440	33.302335	1265.364807
6.760000	-83.109795	32.092271	1246.088806
6.770000	-82.026634	31.089189	1223.332977
6.780000	-79.251377	29.401266	1197.574936
6.790000	-78.405918	30.075289	1178.610046
6.800000	-75.712498	30.717201	1168.171204
6.810000	-71.329014	29.190474	1156.467850
6.820000	-67.949400	27.135973	1150.608643
6.830000	-64.449657	24.042145	1149.331421
6.840000	-59.618357	22.590769	1149.954697
6.850000	-57.439985	23.863461	1154.212708
6.860000	-56.391207	24.698992	1162.264008
6.870000	-55.463743	26.383097	1167.470398
6.880000	-53.129679	26.946160	1178.051147
6.890000	-49.991497	27.311467	1185.788696
6.900000	-47.294682	27.554370	1192.110321
6.910000	-46.891775	26.305203	1198.589386
6.920000	-46.811636	25.338997	1209.494904
6.930000	-47.535610	25.055077	1220.398804
6.940000	-48.500509	27.740042	1232.092285
6.950000	-49.103001	30.025042	1243.629639
6.960000	-48.214844	33.353822	1254.374451
6.970000	-47.650131	35.681110	1265.908356
6.980000	-48.050320	36.524592	1277.129486
6.990000	-49.820351	36.004769	1283.612640
7.000000	-52.677622	34.199214	1290.729797
7.010000	-56.139753	31.832503	1291.532349
7.020000	-59.719635	30.467292	1288.068726
7.030000	-62.133162	31.791490	1283.970001
7.040000	-66.117479	32.152349	1283.822693
7.050000	-70.342041	31.750796	1283.199066
7.060000	-72.838425	31.276119	1279.097870
7.070000	-75.051180	29.955415	1272.780182
7.080000	-75.855633	29.843187	1268.515930
7.090000	-74.649633	28.932625	1259.823669
7.100000	-74.688597	29.140874	1252.553009
7.110000	-74.408705	30.153183	1248.125580
7.120000	-75.051517	30.917180	1237.850739
7.130000	-75.491693	34.090177	1228.365021
7.140000	-74.645390	36.978618	1217.143066
7.150000	-73.958174	39.469325	1205.449066
7.160000	-74.280769	41.116866	1199.917725
7.170000	-76.898804	41.118457	1192.811584
7.180000	-81.888851	41.035155	1184.443359
7.190000	-88.206894	39.584734	1182.709106
7.200000	-89.736168	36.727445	1180.338440
7.210000	-88.366837	34.630023	1176.072433
7.220000	-86.031750	32.052201	1174.487396
7.230000	-82.653152	30.801763	1174.324707
7.240000	-82.250244	29.306191	1175.429443
7.250000	-83.700230	28.817524	1176.532867
7.260000	-84.986710	27.321633	1180.166718
7.270000	-84.784069	26.671134	1181.429047
7.280000	-83.655491	26.144316	1180.796906
7.290000	-83.375427	26.344934	1183.642120
7.300000	-83.174480	27.792176	1185.538147
7.310000	-84.261887	30.765190	1188.382202
7.320000	-84.906059	33.099791	1190.275879
7.330000	-84.423866	34.308579	1190.746674
7.340000	-83.336632	35.195941	1189.480377
7.350000	-81.121502	34.193171	1187.737885
7.360000	-79.227779	33.752196	1185.520081
7.370000	-78.338095	33.469232	1182.984436
7.380000	-78.092241	34.189357	1185.032135
7.390000	-77.000763	35.754235	1184.551056
7.400000	-74.500645	36.549705	1181.385834
7.410000	-73.168575	36.502650	1179.326813
7.420000	-70.669308	35.613063	1175.999207
7.430000	-67.407097	34.289820	1174.568237
7.440000	-64.021876	34.494251	1174.398483
7.450000	-58.748878	36.234632	1173.910843
7.460000	-54.644096	37.332469	1178.164230
7.470000	-51.342584	39.998993	1184.155518
7.480000	-48.000913	44.031694	1188.726990
7.490000	-47.876543	48.665285	1187.454330
7.500000	-47.916358	51.771517	1189.660355
7.510000	-48.197953	54.148721	1187.129395
7.520000	-48.557647	56.802530	1184.760056
7.530000	-47.954984	57.447940	1184.759048
7.540000	-50.250425	56.204813	1188.871231
7.550000	-52.222929	54.116294	1195.033859
7.560000	-51.621458	53.437186	1203.882004
7.570000	-49.206066	52.792731	1209.884567
7.580000	-46.830993	53.272177	1214.942719
7.590000	-47.635785	54.236156	1218.894455
7.600000	-47.996840	54.597650	1220.473877
7.610000	-50.170628	53.959556	1221.423279
7.620000	-52.020968	53.119572	1223.318283
7.630000	-50.048803	52.966007	1227.107956
7.640000	-46.067035	50.686096	1231.210297
7.650000	-41.401956	49.936090	1237.366074
7.660000	-37.540991	49.504018	1244.472763
7.670000	-38.145011	50.754460	1251.108810
7.680000	-39.390488	51.798560	1253.164063
7.690000	-41.682533	52.278006	1253.799850
7.700000	-42.806352	52.435384	1252.063614
7.710000	-41.195580	52.229676	1249.695389
7.720000	-38.940634	51.548026	1254.120483
7.730000	-36.568621	49.347915	1258.384903
7.740000	-32.746624	47.511205	1261.066925
7.750000	-28.963250	46.438496	1265.490067
7.760000	-24.898794	46.133279	1262.485901
7.770000	-20.468533	47.547459	1258.849747
7.780000	-15.917808	49.886513	1254.740219
7.790000	-14.227914	50.059473	1251.741989
7.800000	-15.474238	49.829926	1247.636841
7.810000	-16.519279	49.517715	1248.589355
7.820000	-17.724600	48.718428	1249.542664
7.830000	-18.326410	47.718203	1253.972717
7.840000	-16.032669	46.396864	1253.026581
7.850000	-13.939362	46.764082	1250.185150
7.860000	-14.945436	47.248297	1248.609314
7.870000	-15.468295	47.413309	1243.555511
7.880000	-16.312733	46.248075	1237.708893
7.890000	-17.117355	44.401825	1233.124481
7.900000	-14.502205	41.913027	1229.011688
7.910000	-10.198011	41.227875	1230.903107
7.920000	-7.661983	41.703823	1233.112869
7.930000	-7.100496	43.428940	1238.174255
7.940000	-9.232769	45.032286	1243.233490
7.950000	-11.968723	46.554878	1246.400726
7.960000	-15.268202	44.907972	1245.616302
7.970000	-15.386968	44.300396	1242.616089
7.980000	-14.584044	44.057493	1234.876465
7.990000	-16.112978	43.532265	1229.821320
8.000000	-16.033858	44.008848	1223.185059
8.010000	-16.761058	44.488613	1219.077820
8.020000	-18.089727	44.844379	1220.816193
8.030000	-18.411474	46.442322	1224.134491
8.040000	-17.486050	48.122606	1222.081665
8.050000	-17.163623	50.604410	1214.652832
8.060000	-17.164472	51.727674	1210.227386
8.070000	-18.292708	53.012449	1202.797943
8.080000	-19.902802	54.540768	1192.682205
8.090000	-19.702367	55.546078	1182.878433
8.100000	-16.843403	55.664349	1175.283188
8.110000	-14.669106	54.696554	1173.692459
8.120000	-12.496168	51.443123	1176.370224
8.130000	-12.574610	47.940424	1174.311859
8.140000	-14.625047	44.796995	1172.253815
8.150000	-17.560415	42.498955	1168.143616
8.160000	-20.618287	40.122068	1169.093658
8.170000	-22.630606	37.504824	1174.149780
8.180000	-23.756637	37.294347	1179.047485
8.190000	-23.876082	37.971549	1186.314392
8.200000	-22.751412	38.691672	1193.581329
8.210000	-20.739094	39.770426	1197.846878
8.220000	-20.217930	40.211720	1202.585907
8.230000	-20.018003	40.498498	1199.268295
8.240000	-20.703347	41.829057	1193.105331
8.250000	-23.843738	43.923301	1188.365738
8.260000	-26.621713	45.740939	1184.574905
8.270000	-28.634882	47.549992	1185.364334
8.280000	-28.353800	48.353095	1191.051361
8.290000	-25.334045	48.905350	1199.423477
8.300000	-21.226043	49.572689	1204.161591
8.310000	-19.693370	50.009851	1208.269302
8.320000	-18.646464	49.889036	1211.428619
8.330000	-19.691675	49.010582	1214.113449
8.340000	-20.536282	49.983784	1214.425110
8.350000	-20.295691	49.677934	1214.893921
8.360000	-18.082088	47.361777	1215.676956
8.370000	-13.937832	45.044986	1214.403488
8.380000	-10.193937	43.526848	1220.717087
8.390000	-6.812962	42.519628	1229.876541
8.400000	-6.449362	42.710704	1236.041183
8.410000	-6.849550	43.787230	1242.520279
8.420000	-6.286535	44.785866	1242.997086
8.430000	-7.493385	44.105483	1240.628693
8.440000	-9.183617	44.825604	1234.311523
8.450000	-11.359102	44.792224	1227.678238
8.460000	-14.459335	44.797948	1220.885208
8.470000	-15.385778	46.447716	1214.087585
8.480000	-12.127645	48.020863	1203.496475
8.490000	-7.377504	49.632158	1197.328094
8.500000	-3.029760	51.039343	1184.363693
8.510000	-0.172832	50.803753	1160.975677
8.520000	-0.777191	49.486231	1126.845032
8.530000	-4.359110	48.082546	1090.502136
8.540000	-5.124767	45.509178	1042.942703
8.550000	-1.345469	42.015387	977.524506
8.560000	5.286680	36.073175	903.099823
8.570000	13.691238	29.450265	817.453766
8.580000	20.085515	24.588078	738.128296
8.590000	19.719876	22.459819	672.233078
8.600000	15.532241	21.092379	620.238678
8.610000	6.755424	19.725575	568.878761
8.620000	1.514937	16.885142	525.258797
8.630000	4.284084	15.128235	489.696182
8.640000	11.922479	14.328310	457.135284
8.650000	20.246558	13.324588	425.041534
8.660000	23.984342	12.923990	395.642586
8.670000	20.759569	12.282397	366.878418
8.680000	19.628787	10.234575	345.699699
8.690000	16.568879	8.498327	323.572079
8.700000	15.967237	8.523122	302.072517
8.710000	19.547798	6.471166	282.784233
8.720000	22.038409	4.378515	259.385242
8.730000	24.531226	3.810681	236.934998
8.740000	28.553658	4.851600	214.165382
8.750000	29.476368	6.897196	190.450157
8.760000	28.187171	6.938528	170.370098
8.770000	26.052691	5.574267	154.877396
8.780000	27.018950	5.773294	143.967447
8.790000	26.979815	7.413203	135.271378
8.800000	26.738037	8.216944	128.314156
8.810000	24.363476	8.302788	125.310163
8.820000	21.466055	9.992615	123.414164
8.830000	21.506889	10.675540	124.361591
8.840000	24.165589	9.628897	127.205496
8.850000	27.386115	8.185471	130.681566
8.860000	29.960602	6.983675	133.683762
8.870000	32.133539	7.266320	133.999027
8.880000	34.345614	9.112253	136.684483
8.890000	37.161878	9.352930	133.362768
8.900000	40.623333	7.946383	134.466837
8.910000	43.117508	6.336040	132.568224
8.920000	46.015779	5.608921	130.354513
8.930000	47.464403	3.999213	124.505135
8.940000	45.612703	3.157003	122.609800
8.950000	41.748175	3.359528	118.184341
8.960000	39.373274	4.162633	117.236097
8.970000	39.534740	3.276228	114.231607
8.980000	41.265299	2.111949	110.279369
8.990000	41.869486	1.430932	107.433662
9.000000	40.177555	1.875088	106.169666
9.010000	38.285021	2.440696	103.008696
9.020000	38.204710	2.883262	102.060617
9.030000	39.131327	2.159959	99.846905
9.040000	41.064354	1.032560	100.478739
9.050000	42.754757	0.511146	100.953432
9.060000	43.599195	0.470768	103.958412
9.070000	44.563929	1.355582	105.223228
9.080000	47.097580	2.361212	112.336763
9.090000	49.471800	3.404994	118.345575
9.100000	51.967335	3.527081	122.771526
9.110000	53.254663	3.087696	119.137007
9.120000	51.888384	2.926820	113.604361
9.130000	49.677668	3.970602	101.430916
9.140000	45.052406	5.255061	85.936404
9.150000	40.146059	5.855322	66.489333
9.160000	32.985787	3.478117	50.679396
9.170000	25.781795	0.901249	34.236643
9.180000	15.474514	-0.582236	18.900748
9.190000	5.810218	-0.980609	8.782394
9.200000	-0.390416	-1.100152	0.404862
9.210000	-0.795359	-0.215338	-4.971296
9.220000	-0.514615	-0.297047	-6.235619
9.230000	0.853871	-0.982835	-7.342803
9.240000	2.504459	-1.745880	-8.133578
9.250000	1.336406	-1.544626	-7.975456
9.260000	-0.352638	-1.382797	-4.812846
9.270000	-1.078309	-0.818143	-2.441012
9.280000	-0.152883	-0.254125	0.087470
9.290000	1.014999	-0.693193	1.510242
9.300000	1.135633	0.110547	3.089990
9.310000	-0.635079	0.873274	3.565013
9.320000	-1.840909	0.874228	3.881420
9.330000	-0.231665	0.671385	2.774565
9.340000	1.176976	0.512736	1.193178
9.350000	0.572958	1.273873	0.403058
9.360000	-0.474121	1.756817	-0.703797
9.370000	-1.479856	2.239443	-2.126734
9.380000	-0.795868	1.675425	-3.233755
9.390000	0.371335	0.869776	-3.233099
9.400000	1.096497	0.509238	-0.704453
9.410000	0.532124	0.952758	-0.703305
9.420000	-0.112050	1.395642	-0.546822
9.430000	-0.836702	1.596259	-0.544692
9.440000	-0.917351	1.314250	-0.228776
9.450000	-2.808697	-0.572696	0.086323
9.460000	2.505138	0.106095	1.190721
9.470000	-1.881743	0.824946	-1.175379
9.480000	1.255078	-1.052778	2.457338
9.490000	-0.594925	-0.294185	-1.652531
9.500000	-0.432608	-0.134900	1.826815
9.510000	-0.754695	-0.178140	-2.125751
9.520000	1.659002	-1.020032	1.666235
9.530000	0.049758	-0.858839	0.086160
9.540000	-1.238419	-0.254125	-0.860281
9.550000	-0.634570	0.028202	-0.546167
9.560000	0.572109	0.630371	-0.387061
9.570000	-0.312993	0.309574	0.403714
9.580000	0.773052	0.308302	0.085831
9.590000	-0.031231	-0.133628	0.243954
9.600000	-0.675234	0.670113	-0.702651
9.610000	-0.876347	1.072301	-1.334976
9.620000	0.370147	1.194707	0.086651
9.630000	0.450796	1.112679	-1.178492
9.640000	1.135803	1.032878	1.034400
9.650000	0.290347	1.193435	-0.386897
9.660000	-1.198604	1.193435	0.403386
9.670000	-1.117785	1.354628	-0.703961
9.680000	-0.192529	0.790292	-0.703142
9.690000	0.572448	0.629417	-0.229266
9.700000	0.652078	0.469814	0.403059
9.710000	0.168864	0.749597	0.086159
9.720000	-0.796377	0.830988	0.561181
9.730000	-1.077970	0.548979	-1.336450
9.740000	-0.634740	-0.094522	-0.702650
9.750000	0.411150	-0.215656	0.085504
9.760000	0.170561	0.065717	-0.387716
9.770000	-0.273178	0.227865	0.085668
9.780000	-0.474291	0.227865	1.352284
9.790000	-0.674725	-0.214384	0.560854
9.800000	-0.473442	-0.536452	0.086159
9.810000	0.009433	-0.777447	0.719140
9.820000	-0.474121	-0.214384	-0.386897
9.830000	-0.635419	-0.012812	1.034892
9.840000	-0.716068	0.590629	0.086978
9.850000	0.049079	0.509238	0.402403
9.860000	0.773901	0.107367	1.667546
9.870000	0.170731	-0.375577	0.717993
9.880000	-0.433627	0.549616	0.403223
9.890000	-0.796377	0.871366	-0.387880
9.900000	-0.957166	1.314568	-1.495392
9.910000	0.008754	1.152739	-0.229431
9.920000	0.572448	0.871684	0.561181
9.930000	0.291195	0.308302	-0.862575
9.940000	-0.192189	0.550888	0.718812
9.950000	-0.957506	1.274191	1.193342
9.960000	-0.635419	1.314568	-0.704616
9.970000	-0.031910	1.233495	-0.703634
9.980000	0.652758	0.549297	-0.071472
9.990000	0.169543	0.146473	-0.229102
10.000000	-0.554091	0.347726	1.033746
10.010000	-0.836532	0.589357	-1.493589
10.020000	-0.595434	0.589675	0.403878
10.030000	0.410980	0.187487	0.718321
10.040000	0.652078	-0.013766	0.877099
10.050000	0.129218	0.026294	-1.019222
10.060000	-0.594925	-0.013448	0.877099
10.070000	-1.279083	-0.295457	0.718813
10.080000	-1.117785	-0.457287	0.878409
10.090000	0.572448	-0.496074	0.877098
10.100000	1.014490	-0.456015	-0.545674
10.110000	-0.273008	0.749597	0.245263
10.120000	-0.394151	0.872002	-1.493753
10.130000	-2.526765	-0.331383	-1.493917
10.140000	-2.647229	0.147745	-0.386406
10.150000	1.900610	0.629417	0.876116
10.160000	3.469530	0.108957	1.508113
10.170000	0.369467	0.068898	0.403550
10.180000	-0.715389	1.995268	-0.229758
10.190000	-3.212451	2.117991	-2.125751
10.200000	-2.084215	0.108321	0.878245
10.210000	1.819451	0.066353	0.243791
10.220000	2.262342	0.348362	-0.546657
10.230000	0.934180	0.347408	2.298888
10.240000	0.007396	0.752141	1.508932
10.250000	-1.522049	1.757453	0.086159
10.260000	-2.084724	1.192163	0.877917
10.270000	-0.272838	-0.133628	-1.178327
10.280000	0.370656	0.227865	-1.969759
10.290000	0.813207	-0.095158	-1.336286
10.300000	0.651909	0.026612	0.718812
10.310000	-0.434646	0.629099	0.087470
10.320000	-0.716747	0.750869	-0.545183
10.330000	-0.836532	-0.055098	0.086323
10.340000	-0.957506	-0.375259	-0.071471
10.350000	-0.715559	-0.336153	0.087962
10.360000	0.611584	-0.415319	-0.703961
10.370000	0.853192	-0.295775	-0.229922
10.380000	0.249852	0.025339	0.876771
10.390000	-0.393981	-0.053826	0.877426
10.400000	-1.038324	0.147109	1.035876
10.410000	-1.158619	0.348362	0.087142
10.420000	-0.514446	0.106731	-0.862083
10.430000	0.612433	0.227229	-0.545838
10.440000	1.256267	0.268879	-0.071635
10.450000	0.531105	0.991228	-0.544856
10.460000	-0.957845	0.992500	0.403223
10.470000	-1.481384	1.395324	0.087633
10.480000	-1.037645	1.233813	-0.228447
10.490000	0.531105	0.107049	-0.229594
10.500000	1.376221	0.752459	0.559379
10.510000	0.451475	0.790292	0.561017
10.520000	0.007226	1.074209	0.403387
10.530000	-0.475479	2.036917	0.561673
10.540000	-1.320086	0.751187	0.403223
10.550000	-1.158958	-0.374305	-0.703305
10.560000	0.209867	0.305758	-0.862246
10.570000	0.491460	-0.133628	0.245100
10.580000	0.973486	-0.295139	-0.387552
10.590000	0.248834	0.470768	-0.546167
10.600000	-1.279592	0.107049	0.403879
10.610000	-0.635249	-0.657268	1.509915
10.620000	0.490780	-0.736115	-0.388044
10.630000	0.209867	-0.174642	0.245592
10.640000	-0.554261	-0.296411	0.244937
10.650000	0.209528	-0.093886	-0.387060
10.660000	0.007396	1.112997	-0.072782
10.670000	-0.675913	-0.535180	0.719140
10.680000	-0.393812	-0.377167	-1.018075
10.690000	-0.232683	0.269833	-0.228939
10.700000	-0.072744	0.470132	-0.387880
10.710000	-0.635589	0.429436	-0.546003
10.720000	0.088554	1.314250	-0.071144
10.730000	1.053965	1.555563	0.244445
10.740000	0.450796	0.591265	-1.336122
10.750000	-1.037985	0.710809	0.560034
10.760000	-1.078649	1.553973	-0.070161
10.770000	-0.354166	0.710491	-2.127717
10.780000	0.490950	0.389058	0.086323
10.790000	0.692233	1.272601	0.560361
10.800000	0.128200	0.870412	1.666562
10.810000	-0.354166	0.588403	0.086487
10.820000	-1.441060	0.629735	-0.071963
10.830000	-1.199283	0.186215	0.403387
10.840000	-0.152374	-0.416909	-0.703960
10.850000	1.014150	-0.095158	0.086487
10.860000	0.852682	-0.014084	0.561018
10.870000	-0.595774	-0.255079	1.193998
10.880000	-1.360581	0.106413	-0.229922
10.890000	-0.917351	-0.174960	0.087470
10.900000	0.249852	-0.616572	-1.493589
10.910000	0.933671	-0.697964	0.717993
10.920000	0.047381	-0.174960	0.561345
10.930000	-0.273857	0.147109	1.035876
10.940000	-0.435155	0.187805	-0.228283
10.950000	-0.354506	0.588403	1.035384
10.960000	0.250362	0.107049	-0.071963
10.970000	0.451135	-0.214065	0.717829
10.980000	0.129049	0.711763	-0.072127
10.990000	-0.354845	0.871366	-0.861756
11.000000	-0.314181	1.193753	-0.862411
11.010000	-0.072744	1.113951	0.086815
11.020000	0.571939	0.629735	0.244773
11.030000	0.451475	0.508602	-0.704452
11.040000	-0.273857	0.750233	-0.071308
11.050000	-0.556128	0.950850	0.402240
11.060000	-0.314861	0.991864	-0.072127
11.070000	0.088384	0.749915	-0.230249
11.080000	0.289837	0.427846	1.508605
11.090000	-0.032249	-0.135218	0.244446
11.100000	-0.555110	0.186851	0.086487
11.110000	-0.716408	0.266971	-2.441995
11.120000	-0.716917	0.265698	-0.703797
11.130000	0.248834	-0.015038	-0.387716
11.140000	0.691894	-0.095794	0.403551
11.150000	0.128200	-0.336789	-0.386569
11.160000	-0.917181	-0.337425	1.352121
11.170000	-1.078479	-0.256351	0.877754
11.180000	-0.233872	-0.174006	0.087306
11.190000	0.490441	-0.054780	-0.388535
11.200000	0.330331	-0.095794	-0.069997
11.210000	0.048230	-0.215338	0.560690
11.220000	-0.716917	-0.012494	0.403387
11.230000	-0.676083	0.548343	-1.650729
11.240000	0.088215	0.788384	-1.178163
11.250000	-0.313842	0.147745	-0.070488
11.260000	0.047890	-0.093250	-0.545838
11.270000	0.652078	0.749279	-1.020205
11.280000	-0.112898	1.312978	0.243790
11.290000	-0.635589	0.590947	0.561017
11.300000	-0.836532	0.390012	1.351138
11.310000	-0.153053	0.830034	0.086159
11.320000	0.449947	0.789974	1.192360
11.330000	0.128709	0.750551	0.086978
11.340000	-0.233872	1.113315	0.086323
11.350000	-0.113238	0.831306	-0.071635
11.360000	-0.634910	0.106095	-0.702650
11.370000	0.893177	0.269197	-0.546002
11.380000	-0.152544	0.228819	-1.337432
11.390000	-2.205358	0.188123	0.245756
11.400000	-0.676083	0.589675	-0.228610
11.410000	1.295233	0.749597	0.875951
11.420000	-0.273178	-0.334563	1.667546
11.430000	0.169373	-0.777765	0.877099
11.440000	-0.274027	-0.173052	0.561018
11.450000	-0.958185	-0.013130	0.246412
11.460000	-0.595774	0.548025	0.086323
11.470000	-0.072744	-0.093568	-1.336122
11.480000	0.209188	-0.374623	-1.178000
11.490000	0.812867	-0.415955	0.244282
11.500000	0.088554	-0.012494	-0.703141
11.510000	-1.522049	0.548343	1.351301
11.520000	-0.555449	0.510192	-1.019714
11.530000	-0.555619	0.469496	1.193998
11.540000	0.932822	0.710809	0.244609
11.550000	0.370147	0.147745	1.193507
11.560000	0.249173	0.468860	-0.704943
11.570000	-0.876857	0.830670	0.402896
11.580000	-0.797226	0.872002	-0.070488
11.590000	-0.515295	0.911744	0.878737
11.600000	0.731878	1.031605	0.244445
11.610000	0.933331	0.589993	-0.229922
11.620000	0.008245	0.789020	1.667218
11.630000	-0.434815	0.349316	1.035712
11.640000	-0.997321	0.146791	0.560854
11.650000	-0.072404	0.187169	-0.703469
11.660000	-0.112219	0.348680	-0.703306
11.670000	0.048569	0.228183	0.560691
11.680000	-0.314181	-0.051918	1.035385
11.690000	-0.353997	0.267925	0.245593
11.700000	-0.193208	-0.012494	1.195145
11.710000	-0.474291	-0.415955	0.404534
11.720000	-0.433797	-0.214384	2.141913
11.730000	0.208509	0.027884	0.719304
11.740000	-0.112898	0.671385	-0.704288
11.750000	-0.755883	-0.373351	-0.545838
11.760000	-0.152374	0.067943	0.876444
11.770000	0.491629	-0.051918	0.718485
11.780000	-0.232853	-0.011540	0.561018
11.790000	-0.836702	0.751505	0.403060
11.800000	-0.354166	0.833851	0.875787
11.810000	-0.273857	0.713035	-0.387061
11.820000	-0.272668	0.389058	0.086159
11.830000	0.250192	0.028520	-0.861263
11.840000	0.289837	0.150289	0.086159
11.850000	-0.795868	0.471722	-0.071471
11.860000	-0.998340	0.754049	1.351793
11.870000	0.168694	1.073573	0.560199
11.880000	0.007905	0.268879	1.193343
11.890000	1.135123	0.591583	1.666890
11.900000	1.939916	0.950532	-0.545838
11.910000	-0.394321	0.351224	-1.809834
11.920000	-3.774617	1.111407	-1.176362
11.930000	-1.601000	0.068898	0.720778
11.940000	2.705062	-0.658222	-0.072126
11.950000	2.825017	-0.255715	-1.019877
11.960000	-0.554770	-0.091660	-0.070816
11.970000	-2.085233	-0.534544	1.035876
11.980000	-1.359902	-0.253807	-0.228775
11.990000	-0.111710	0.227865	0.560854
12.000000	0.570920	-0.776493	0.561345
12.010000	0.049079	-1.659082	0.244282
12.020000	0.691554	0.026930	0.402732
12.030000	0.249343	0.549616	-0.386241
12.040000	-0.596113	0.148381	0.719468
12.050000	-0.958015	0.230091	0.245101
12.060000	-0.636098	-0.052236	0.086324
12.070000	0.934180	-0.254761	-0.704124
12.080000	0.973656	0.470768	-0.545347
12.090000	-0.032759	0.872638	0.244281
12.100000	0.088384	0.631643	0.086815
12.110000	-0.274196	0.671385	-0.229266
12.120000	-0.394491	0.792837	-0.071799
12.130000	0.289498	0.551524	-0.387388
12.140000	0.249003	0.511464	0.877427
12.150000	-0.274027	0.992818	-0.861264
12.160000	0.571260	0.711127	0.402240
12.170000	0.611414	0.228501	1.509588
12.180000	0.208509	0.470450	0.718812
12.190000	-0.354845	0.589357	0.244282
12.200000	-0.595774	0.308620	0.086979
12.210000	-0.435494	0.067307	-1.335139
12.220000	0.369977	0.106413	-0.072290
12.230000	0.289498	-0.214384	0.718649
12.240000	0.369637	-0.414365	-1.018894
12.250000	0.249003	0.348362	0.561346
12.260000	-1.038494	-0.495438	0.401748
12.270000	-0.716747	-0.615936	1.035057
12.280000	-0.353997	-0.334563	0.560854
12.290000	0.691894	-0.373669	0.877918
12.300000	0.852682	-0.093250	0.877263
12.310000	-0.394491	0.108321	0.719140
12.320000	-0.837381	0.189077	-0.387225
12.330000	-0.595774	0.108321	-0.544528
12.340000	-0.313672	0.429436	0.561346
12.350000	0.169373	0.429118	-1.019058
12.360000	0.370147	0.229773	-0.071635
12.370000	-0.032419	0.751505	0.719631
12.380000	-0.113408	1.435702	-1.020533
12.390000	-0.555279	0.830670	-0.070488
12.400000	-0.273857	0.912062	0.086651
12.410000	0.169203	0.591583	0.086651
12.420000	0.652248	0.710809	0.717993
12.430000	0.168694	1.110135	0.403060
12.440000	-0.676083	0.230091	0.403059
12.450000	-1.722822	0.308939	0.404370
12.460000	3.187428	0.348362	-0.389191
12.470000	-1.199283	-0.012812	-1.178163
12.480000	-2.768203	-0.855023	2.776695
12.490000	2.502930	-0.132674	-0.389190
12.500000	-0.918709	0.429118	-0.071144
12.510000	-1.037985	-0.174324	2.143061
12.520000	0.771863	-0.576512	0.718813
12.530000	-0.474970	-0.614346	0.877262
12.540000	-0.434815	-0.094204	0.878246
12.550000	0.289498	0.026930	-0.070979
12.560000	-1.118804	-0.493848	-0.545838
12.570000	0.128539	0.067625	0.085996
12.580000	1.134614	-0.213429	-0.071307
12.590000	-0.274027	0.229137	-0.703142
12.600000	0.370147	0.350906	0.560690
12.610000	0.168354	0.030110	1.193835
12.620000	-0.233872	0.389694	0.560526
12.630000	0.732388	1.193117	-0.071799
12.640000	-0.596453	0.310211	-0.070160
12.650000	-0.112729	-0.172416	-1.335467
12.660000	1.094120	0.952758	-1.811145
12.670000	-0.354506	0.711127	-0.227791
12.680000	-0.233532	0.349952	0.877426
12.690000	0.853022	0.632597	-0.072126
12.700000	0.531105	0.873274	1.035057
12.710000	0.007396	0.469814	0.719796
12.720000	-0.072914	0.469814	-0.071144
12.730000	-0.153902	0.471722	-0.545674
12.740000	0.008245	-0.174324	-0.070652
12.750000	0.370147	-0.214065	-0.071144
12.760000	-0.394321	-0.415001	0.876934
12.770000	-0.354166	-0.253489	0.404534
12.780000	-0.354506	-0.294185	-0.071308
12.790000	-0.193547	0.027248	0.719795
12.800000	-0.113238	-0.415001	1.352612
12.810000	0.329992	-0.775857	0.877427
12.820000	0.289667	-0.294185	0.718812
12.830000	-0.032589	-0.093886	0.245265
12.840000	-0.676423	-0.052554	-0.387716
12.850000	-0.354845	0.349952	-0.387389
12.860000	0.490441	0.026930	-0.071798
12.870000	0.651739	-0.454742	1.035877
12.880000	0.491120	0.028202	0.718485
12.890000	-0.112898	0.390330	0.245592
12.900000	-0.556468	0.591265	0.562001
12.910000	-0.193547	1.194389	-0.071635
12.920000	0.530596	0.590947	-0.071143
12.930000	0.732388	0.511464	0.878082
12.940000	0.449947	0.389058	0.244937
12.950000	0.168354	0.951804	1.351629
12.960000	-0.194057	0.670431	-1.019386
12.970000	-0.154072	0.469496	-1.177836
12.980000	0.329143	0.670113	-0.228774
12.990000	0.409792	0.186851	-0.545182
13.000000	0.007226	-0.174324	-0.702977
13.010000	-0.154072	-0.013448	-0.545183
13.020000	0.167505	-0.175278	1.035713
13.030000	0.167845	-0.133628	0.718977
13.040000	0.208169	-0.456333	-0.228118
13.050000	0.087536	-0.496710	1.351138
13.060000	0.449098	-0.456015	1.509096
13.070000	-0.314861	-0.176232	-0.544691
13.080000	-0.113068	-0.456969	-0.071471
13.090000	0.449607	-0.174642	0.561182
13.100000	0.449947	-0.295139	0.562329
13.110000	0.208679	-0.536452	1.194162
13.120000	-0.113408	0.066671	0.403551
13.130000	-0.234381	-0.294503	0.244773
13.140000	-0.153223	-0.012176	0.244610
13.150000	0.128200	0.107049	-0.228774
13.160000	0.449607	0.148699	0.087962
13.170000	0.570750	0.430072	0.878082
13.180000	-0.073083	0.269833	-0.545183
13.190000	-0.153563	0.309892	-0.862082
13.200000	-0.073423	0.791565	-0.387224
13.210000	0.611245	0.109911	1.193671
13.220000	0.570920	0.470450	0.402240
13.230000	0.570241	0.592219	-1.177672
13.240000	0.007226	0.953076	-0.229430
13.250000	-0.113408	0.670749	-0.229429
13.260000	0.127860	0.591901	-1.493753
13.270000	0.248834	0.550888	0.403715
13.280000	0.409962	0.067943	-0.228774
13.290000	0.329482	0.188759	0.244446
13.300000	-0.274366	0.187805	-0.387061
13.310000	-0.073762	0.389058	0.086651
13.320000	0.208849	0.389058	-0.229429
13.330000	0.409792	-0.173370	-0.070488
13.340000	0.168694	-0.655678	0.244774
13.350000	-0.113408	-0.416273	0.404534
13.360000	-0.193887	-0.294821	1.035549
13.370000	-0.153223	-0.294821	0.719140
13.380000	0.208169	-0.253807	0.719304
13.390000	0.490101	-0.456015	-0.386405
13.400000	0.409622	-0.335517	0.877098
13.410000	-0.314861	-0.333609	0.245757
13.420000	-0.596453	-0.455061	1.035385
13.430000	-0.918370	-2.181767	0.878573
13.440000	2.825187	2.311930	0.244774
13.450000	4.393088	-0.288779	0.242972
13.460000	-6.792672	-2.063814	1.039973
13.470000	0.973146	0.949578	1.035549
13.480000	3.427168	2.561511	-4.026166
13.490000	-3.854927	-0.737387	1.196292
13.500000	1.780146	-1.900713	0.245102
13.510000	1.132407	2.642585	-1.969266
13.520000	-1.923426	0.991228	2.459467
13.530000	1.617320	-0.332655	1.825505
13.540000	-0.797057	1.557154	-1.018567
13.550000	-1.963411	0.192575	1.510407
13.560000	2.220829	-0.536770	1.351466
13.570000	1.295573	0.751505	-1.969102
13.580000	-0.838570	1.595623	0.719959
13.590000	0.772033	-0.855341	0.403552
13.600000	-0.797226	0.389376	-0.069342
13.610000	-0.595095	0.389058	0.719468
13.620000	1.697799	-0.455061	0.244283
13.630000	-0.193208	-1.055640	-0.071143
13.640000	-0.475479	0.389058	0.403223
13.650000	0.168694	0.066353	-0.230085
13.660000	-0.596113	-0.935778	-1.335302
13.670000	-0.193378	-0.092296	1.983627
13.680000	0.169203	-0.896037	-1.968939
13.690000	-0.192529	-1.057548	0.719468
13.700000	0.289837	0.108321	1.035385
13.710000	0.208679	0.430708	1.193179
13.720000	-0.274196	-0.172098	-0.860608
13.730000	0.692063	0.512100	2.300528
13.740000	0.128369	0.470768	0.560854
13.750000	0.048569	-0.333291	-0.859952
13.760000	0.289328	0.631961	-1.019221
13.770000	0.008075	0.914288	-1.020533
13.780000	0.088384	0.752777	0.086815
13.790000	0.410811	0.552160	-0.071471
13.800000	0.169203	0.792519	1.350974
13.810000	-0.274366	0.470768	-0.860936
13.820000	0.007566	0.552160	0.877426
13.830000	-0.394151	0.913970	0.402896
13.840000	0.128879	-0.050646	0.719140
13.850000	0.852682	0.307984	0.244610
13.860000	0.208339	0.269197	0.244446
13.870000	0.047890	0.229455	0.243627
13.880000	0.047890	0.469496	-0.545019
13.890000	-0.555789	-0.293867	-0.229266
13.900000	0.168524	-0.174642	-0.228774
13.910000	0.611245	-0.374941	0.718813
13.920000	0.047890	-0.133628	0.087143
13.930000	-0.394491	-0.093886	0.561673
13.940000	-0.114087	0.027884	0.244937
13.950000	-0.274027	-0.334245	0.244446
13.960000	-0.072744	-0.735797	0.087143
13.970000	0.450965	-1.178046	-0.070979
13.980000	0.008075	-0.455061	0.244938
13.990000	-0.354845	0.068579	-0.545674
14.000000	-0.194057	0.230091	1.509587
14.010000	0.047551	0.108639	0.403879
14.020000	0.450286	-0.214065	0.719304
14.030000	1.013471	0.028520	1.192852
14.040000	-0.515974	0.309257	0.245429
14.050000	-0.676762	0.509238	1.035877
14.060000	0.368788	0.511464	-0.861099
14.070000	0.530256	0.953076	0.560854
14.080000	-0.233532	0.429118	-1.335303
14.090000	0.369807	0.348998	-0.545837
14.100000	0.450286	0.350270	-0.227627
14.110000	-0.435325	0.108321	0.087634
14.120000	0.047890	0.389376	-1.335302
14.130000	0.409113	0.752459	0.877754
14.140000	0.368788	0.270469	0.719141
14.150000	0.289837	0.226275	0.718977
14.160000	-0.233702	-0.013766	1.035385
14.170000	-0.275385	0.389694	-0.861263
14.180000	0.208679	-0.132356	-0.229101
14.190000	0.490271	-0.495438	-0.230413
14.200000	0.530596	0.026294	-1.178491
14.210000	0.408943	-0.132992	0.403223
14.220000	0.168015	-0.293231	0.086980
14.230000	-0.354676	-0.375895	1.353268
14.240000	-0.234212	-0.174642	0.244938
14.250000	0.490441	-0.857249	-0.387551
14.260000	0.650890	-0.212793	0.245429
14.270000	-0.113408	-0.053826	0.245921
14.280000	-0.274027	0.148381	0.086979
14.290000	-0.153732	-0.092296	0.245265
14.300000	0.047381	0.309892	-0.070324
14.310000	0.128369	0.026930	0.877755
14.320000	0.571260	-0.012812	1.667874
14.330000	0.570920	0.350270	-0.387716
14.340000	0.007226	0.632279	1.510735
14.350000	-0.395510	0.510192	0.087798
14.360000	0.168354	0.387786	-0.071144
14.370000	0.490101	0.148699	0.086651
14.380000	0.450116	0.188441	-0.230249
14.390000	-0.113408	0.269833	0.246084
14.400000	-0.154072	0.630053	0.878082
14.410000	-0.113578	0.430072	-0.545019
14.420000	0.087875	0.268879	-0.544199
14.430000	0.128200	0.067307	-0.387060
14.440000	0.087536	-0.335199	0.561346
14.450000	0.007396	-0.213747	0.402896
14.460000	-0.154242	0.148699	0.086815
14.470000	-0.073593	-0.013130	-1.651383
14.480000	0.248664	-0.334563	1.351465
14.490000	0.168694	-0.294185	0.403060
14.500000	0.128200	-0.293867	0.403879
14.510000	-0.153393	-0.253807	-0.387388
14.520000	-0.233532	-0.254443	0.087143
14.530000	-0.032419	0.068579	0.086651
14.540000	0.289158	-0.052236	-0.702649
14.550000	0.248834	0.149971	0.244610
14.560000	-0.072914	0.028520	-0.228610
14.570000	0.168354	0.551206	1.035385
14.580000	-0.072914	0.350588	0.245428
14.590000	-0.113578	0.229455	1.352449
14.600000	0.370147	0.069534	0.402896
14.610000	0.248664	0.309574	-0.071635
14.620000	0.208509	0.430390	-0.704124
14.630000	-0.113238	0.470768	-0.703305
14.640000	-0.072914	0.430072	-0.228774
14.650000	-0.113068	0.189077	-0.071308
14.660000	0.530256	0.269197	-0.545182
14.670000	0.248664	-0.293549	1.193507
14.680000	-0.234551	0.107367	1.351466
14.690000	-0.073253	0.149653	0.244774
14.700000	-0.193378	0.107049	0.561182
14.710000	-0.113408	-0.294503	0.403060
14.720000	0.611414	-0.092932	-0.861754
14.730000	0.168354	-0.133628	0.876772
14.740000	-0.153223	-0.455061	0.877754
14.750000	-0.072914	0.188759	0.086651
14.760000	-0.193717	-0.132992	0.877426
14.770000	0.248834	-0.214384	-0.070980
14.780000	0.329822	-0.293867	0.087635
14.790000	0.329143	-0.293549	0.718649
14.800000	-0.394491	-0.092296	-0.229429
14.810000	-0.113408	-0.012494	-0.387389
14.820000	0.288649	0.309574	1.193671
14.830000	0.409622	-0.051600	1.668530
14.840000	0.249003	-0.092614	0.403551
14.850000	-0.032249	0.189077	-0.545674
14.860000	0.047720	0.309892	-1.495554
14.870000	0.248834	0.510828	1.985101
14.880000	-0.072914	0.551842	1.194327
14.890000	0.208509	0.108957	0.086160
14.900000	0.611414	0.390330	-0.228938
14.910000	0.208679	0.390966	-0.070816
14.920000	-0.434815	0.550888	0.403388
14.930000	0.047551	0.228183	1.509260
14.940000	0.329143	0.429436	0.561345
14.950000	0.409622	0.308302	0.086488
14.960000	0.127690	0.227865	1.194491
14.970000	-0.275045	-0.013130	-0.228119
14.980000	-0.153902	-0.053826	0.404043
14.990000	0.208169	-0.013448	-1.176197
