BioWare Version 5.4.9.0 Export
Device:	ISO Leg Press (NEW) 9281CA (SN<616902)	ISO Leg Press (NEW) 9281CA (SN<616902)	ISO Leg Press (NEW) 9281CA (SN<616902)
Samples (#):	1500	1500	1500
Rate (Hz):	100.000000	100.000000	100.000000
Contact period start (sample #):	0	0	0
Contact period end (sample #):	821	821	821
Contact period start time (s):	0.000000	0.000000	0.000000
Contact period end time (s):	8.210000	8.210000	8.210000
First sample time (s):	0.000000	0.000000	0.000000
Normalized force (N):	800.000000	800.000000	800.000000
Normalized length (m):	1.000000	1.000000	1.000000
File Information
Date	Oct 13, 2024  11:39:23
Name	
ID	
Classification	
Description	
abs time (s)	Fx	Fy	Fz
	N	N	N
0.000000	27.038025	-0.339227	219.075611
0.010000	26.836742	-0.137974	216.705250
0.020000	26.594795	-0.419029	215.914806
0.030000	26.918071	-0.581176	215.441097
0.040000	27.038025	-0.782430	213.385994
0.050000	26.837421	-0.742688	212.594891
0.060000	26.877406	-0.501693	211.487545
0.070000	27.239477	-0.381195	210.697914
0.080000	27.602228	-0.061353	210.539955
0.090000	27.521070	-0.022247	209.749836
0.100000	26.837931	0.138310	211.488197
0.110000	25.711561	0.015269	212.752850
0.120000	23.417989	-0.024791	214.492359
0.130000	21.003782	-0.104593	219.236847
0.140000	19.111588	-0.385648	225.401646
0.150000	18.145837	-0.345270	232.514202
0.160000	18.386765	-0.103321	236.782364
0.170000	18.346780	0.339246	244.051723
0.180000	18.064508	0.460697	247.212048
0.190000	16.856811	-0.181214	252.429588
0.200000	14.884476	-0.582130	258.278469
0.210000	12.509575	-1.545156	261.758797
0.220000	9.691954	-2.507228	266.344189
0.230000	6.470070	-3.827931	271.245159
0.240000	3.006917	-5.109209	280.256824
0.250000	-0.013855	-6.752934	288.634846
0.260000	-2.590208	-8.441489	300.014244
0.270000	-4.723671	-10.452113	312.343189
0.280000	-5.852247	-12.300908	325.934673
0.290000	-6.778862	-13.746878	340.473560
0.300000	-8.429959	-15.114318	352.011749
0.310000	-9.598181	-15.676109	361.967056
0.320000	-10.081905	-16.278597	369.395836
0.330000	-11.852108	-16.841024	375.086441
0.340000	-14.427782	-18.249797	383.624054
0.350000	-18.291633	-20.499508	392.318985
0.360000	-23.121404	-23.474430	409.236107
0.370000	-28.996216	-26.532016	426.783417
0.380000	-33.502711	-29.108250	447.806816
0.390000	-36.963147	-31.487042	472.621864
0.400000	-40.302780	-33.503073	504.074760
0.410000	-43.561764	-34.953495	538.529709
0.420000	-45.654734	-35.473957	578.041115
0.430000	-47.868166	-34.544948	624.189217
0.440000	-49.115507	-32.407146	668.441513
0.450000	-50.924849	-30.234376	711.593002
0.460000	-56.395906	-28.873931	750.163879
0.470000	-60.257208	-25.873260	785.891006
0.480000	-62.790861	-24.318241	828.094727
0.490000	-67.537773	-23.049683	877.258636
0.500000	-71.237610	-17.802483	927.839905
0.510000	-76.388790	-13.748489	977.156876
0.520000	-78.846546	-11.376373	1012.249680
0.530000	-80.936798	-7.642859	1029.170563
0.540000	-79.729271	-5.223049	1027.763199
0.550000	-79.447845	-5.094601	1022.087341
0.560000	-90.592094	-4.969016	1027.634232
0.570000	-109.467098	-3.522091	1048.988419
0.580000	-126.485992	-3.118313	1082.827072
0.590000	-121.534569	-2.271014	1117.765869
0.600000	-100.607426	-1.335963	1143.209320
0.610000	-86.520168	-1.577912	1164.067535
0.620000	-92.916313	-2.220141	1176.404510
0.630000	-115.367638	-2.811816	1187.961334
0.640000	-137.662079	-5.330816	1196.517471
0.650000	-147.401924	-9.097394	1208.072723
0.660000	-137.577690	-8.335303	1214.718414
0.670000	-119.104568	-8.628760	1222.147675
0.680000	-107.875767	-13.323711	1235.108688
0.690000	-115.879971	-14.531866	1252.815857
0.700000	-138.092567	-12.402017	1269.426422
0.710000	-155.276161	-9.898908	1281.137329
0.720000	-153.543732	-6.993930	1284.467728
0.730000	-137.609016	-6.581882	1278.777756
0.740000	-123.478889	-8.029125	1279.731064
0.750000	-122.148514	-12.209340	1283.842911
0.760000	-136.835548	-12.661764	1295.704086
0.770000	-157.073784	-6.890605	1309.145798
0.780000	-166.050018	-1.676149	1322.901550
0.790000	-154.419495	1.406232	1328.585144
0.800000	-132.085579	-0.494389	1326.202332
0.810000	-118.924084	-3.851792	1323.659912
0.820000	-120.492668	-4.446022	1317.172943
0.830000	-134.778316	-2.220480	1310.062897
0.840000	-148.099243	2.937696	1301.843109
0.850000	-147.136551	7.136028	1288.404037
0.860000	-132.205875	6.590445	1267.851105
0.870000	-115.381981	3.149424	1248.085785
0.880000	-110.955627	1.881172	1240.014847
0.890000	-121.137688	2.073521	1238.906021
0.900000	-137.156273	6.405390	1239.699905
0.910000	-142.631744	10.663496	1235.271027
0.920000	-127.421516	11.551493	1221.981537
0.930000	-104.644714	10.262899	1197.786850
0.940000	-92.490147	9.253134	1177.072678
0.950000	-99.892536	7.963905	1163.789764
0.960000	-115.908749	9.090351	1161.890167
0.970000	-126.372910	12.028393	1161.254868
0.980000	-117.560863	15.407412	1155.552338
0.990000	-95.752354	15.608030	1142.419830
1.000000	-77.121506	13.593906	1132.449432
1.010000	-75.792833	11.860842	1131.653381
1.020000	-91.768215	9.731628	1129.283844
1.030000	-108.064659	9.048067	1126.915482
1.040000	-107.983665	8.090446	1122.644211
1.050000	-92.209232	8.019230	1109.834045
1.060000	-72.610933	7.948971	1095.432449
1.070000	-62.428534	7.403080	1085.775055
1.080000	-65.242590	6.620964	1079.755249
1.090000	-73.731022	7.129667	1072.317154
1.100000	-68.979355	8.718397	1058.552322
1.110000	-54.208788	10.346548	1040.043976
1.120000	-34.728748	10.042290	1020.269684
1.130000	-19.637283	11.181138	1003.023071
1.140000	-18.147484	11.436442	994.316330
1.150000	-28.206876	11.480956	986.722046
1.160000	-34.482045	12.647778	985.293549
1.170000	-28.443729	13.897266	981.962021
1.180000	-13.633348	13.815556	974.992310
1.190000	1.095876	12.935194	976.084457
1.200000	8.458959	14.107424	981.129776
1.210000	1.859664	15.873554	988.550247
1.220000	-9.004180	15.953037	993.449585
1.230000	-12.664371	15.948586	994.078583
1.240000	-4.976315	15.905028	991.544373
1.250000	5.248451	14.694964	993.116455
1.260000	11.768114	14.729935	999.431839
1.270000	10.761021	17.133207	1009.859711
1.280000	2.873380	18.376334	1020.764923
1.290000	-3.887724	18.851646	1031.354523
1.300000	-5.415979	18.721926	1043.050964
1.310000	-2.678329	18.302883	1053.005630
1.320000	0.984581	19.210265	1065.961853
1.330000	0.057964	21.560759	1078.605530
1.340000	-5.416489	26.088470	1094.883636
1.350000	-12.342284	29.973002	1114.323837
1.360000	-17.216455	32.171206	1127.758972
1.370000	-17.462648	33.284614	1143.247421
1.380000	-14.851063	33.751339	1156.840683
1.390000	-15.820889	34.338558	1167.751297
1.400000	-21.418693	35.769264	1182.773056
1.410000	-29.109295	39.009022	1196.060120
1.420000	-35.549329	41.287346	1204.762726
1.430000	-38.006068	42.324446	1212.043060
1.440000	-37.764630	42.716145	1217.109024
1.450000	-37.725155	43.233738	1223.598389
1.460000	-39.618028	42.026539	1235.143478
1.470000	-44.728542	42.709782	1241.630585
1.480000	-46.864723	43.959269	1251.438919
1.490000	-48.194242	43.599680	1259.505096
1.500000	-49.484116	42.797848	1268.521347
1.510000	-48.961937	41.829103	1276.272766
1.520000	-49.243698	39.897646	1284.023224
1.530000	-51.458488	39.127285	1290.198700
1.540000	-55.724396	39.006783	1291.949005
1.550000	-61.439777	39.489092	1290.380722
1.560000	-64.418186	39.013462	1289.915863
1.570000	-66.390013	38.936209	1291.187714
1.580000	-66.511154	39.058294	1294.192841
1.590000	-64.939688	38.695528	1292.297333
1.600000	-64.294838	38.653879	1286.135651
1.610000	-63.691326	38.651337	1282.343018
1.620000	-64.453756	39.771736	1277.284119
1.630000	-63.286554	41.256495	1273.327606
1.640000	-60.871157	42.177557	1270.002945
1.650000	-56.039860	42.890360	1262.247391
1.660000	-50.324310	42.278969	1260.338303
1.670000	-43.964245	41.788393	1263.321823
1.680000	-38.812218	43.062357	1270.573807
1.690000	-35.308571	45.906286	1280.041016
1.700000	-32.327954	48.751812	1286.979889
1.710000	-26.410271	49.988579	1292.815659
1.720000	-20.894304	51.949596	1295.178009
1.730000	-17.389129	53.588871	1295.488510
1.740000	-15.896614	53.700150	1298.644577
1.750000	-17.383696	52.969528	1297.855270
1.760000	-18.911782	52.002052	1299.749161
1.770000	-17.098707	51.280655	1299.430923
1.780000	-12.750623	51.040298	1299.425354
1.790000	-9.409294	50.959541	1302.897141
1.800000	-6.187917	51.124233	1303.207504
1.810000	-3.529897	51.288929	1307.311142
1.820000	-2.441476	51.613853	1313.311752
1.830000	-1.674799	51.857391	1319.632401
1.840000	-0.103163	50.894688	1325.950607
1.850000	1.747010	49.489731	1332.903687
1.860000	0.219093	48.598236	1337.019806
1.870000	-3.121558	48.233246	1342.401031
1.880000	-5.858191	48.071419	1343.830032
1.890000	-6.743802	48.390305	1345.099243
1.900000	-7.187032	48.150906	1344.945251
1.910000	-7.670076	48.472973	1342.895233
1.920000	-8.675643	48.836048	1343.058929
1.930000	-10.124099	49.444584	1343.221466
1.940000	-12.377855	49.532017	1342.594696
1.950000	-14.550116	49.456671	1344.968002
1.960000	-15.154134	50.065836	1346.711426
1.970000	-16.522281	50.953825	1350.509506
1.980000	-17.972604	51.280985	1355.569244
1.990000	-21.031323	51.527065	1358.579773
2.000000	-25.097474	52.292974	1361.429077
2.010000	-26.385481	52.618540	1363.960724
2.020000	-26.988481	53.697617	1371.704605
2.030000	-26.305003	53.973581	1378.497787
2.040000	-24.655943	52.728224	1391.136139
2.050000	-23.087702	51.845959	1411.676971
2.060000	-22.404902	51.808756	1426.532410
2.070000	-24.498890	51.491140	1444.714157
2.080000	-28.365288	50.534161	1459.899933
2.090000	-35.852400	50.383459	1469.875916
2.100000	-42.535230	50.147232	1484.439545
2.110000	-48.614038	48.831619	1492.046143
2.120000	-62.540339	44.672710	1503.295929
2.130000	-68.170996	47.930920	1515.807373
2.140000	-71.795956	47.587234	1520.883545
2.150000	-75.541718	46.128235	1526.433350
2.160000	-78.320543	45.145184	1527.555267
2.170000	-82.265385	44.841560	1531.997162
2.180000	-83.673687	44.294398	1532.008270
2.190000	-87.334892	43.702722	1530.125061
2.200000	-91.356308	43.472223	1527.766632
2.210000	-93.244938	42.840488	1523.351837
2.220000	-94.289978	42.407781	1527.467438
2.230000	-94.774044	41.405010	1532.530792
2.240000	-96.706902	40.917298	1531.904175
2.250000	-98.395775	39.507891	1531.751495
2.260000	-99.402191	37.817106	1533.495758
2.270000	-100.123615	37.613629	1536.025391
2.280000	-99.759850	38.100706	1535.240204
2.290000	-101.249645	38.317542	1534.454498
2.300000	-102.738258	40.185736	1536.515808
2.310000	-105.714462	41.531244	1535.104309
2.320000	-109.453434	42.988345	1527.211517
2.330000	-109.852768	42.396988	1524.216034
2.340000	-110.615879	41.033363	1522.483551
2.350000	-111.256996	39.994036	1520.432068
2.360000	-110.089455	38.761403	1520.745209
2.370000	-106.427231	38.174179	1521.688019
2.380000	-103.890862	37.269341	1515.993347
2.390000	-100.067673	34.799942	1514.089661
2.400000	-95.999649	32.645933	1513.920898
2.410000	-93.056643	32.698715	1518.180206
2.420000	-91.402491	32.156959	1524.027100
2.430000	-94.943068	29.639869	1524.511169
2.440000	-100.334492	27.564708	1528.001801
2.450000	-102.307678	25.460617	1528.488983
2.460000	-104.560246	24.193332	1529.764252
2.470000	-107.660820	22.691093	1535.938873
2.480000	-109.674664	20.420404	1543.535614
2.490000	-112.370800	19.267573	1546.707947
2.500000	-113.579182	17.871840	1551.301147
2.510000	-115.830391	16.225571	1550.361938
2.520000	-118.406067	14.502997	1552.266937
2.530000	-119.331493	13.015060	1550.374542
2.540000	-119.934486	12.571222	1551.481689
2.550000	-120.660839	12.569633	1552.430786
2.560000	-120.742508	12.244065	1550.057343
2.570000	-118.890980	12.392855	1548.155762
2.580000	-115.993896	12.261863	1546.886841
2.590000	-115.025764	11.320770	1542.932129
2.600000	-115.226711	10.676950	1545.150757
2.610000	-120.339092	9.880524	1541.052704
2.620000	-125.812355	10.415612	1541.380615
2.630000	-127.262688	11.551917	1543.914795
2.640000	-127.422112	13.526934	1548.501312
2.650000	-126.213566	14.211766	1549.136932
2.660000	-124.563145	13.489736	1551.509430
2.670000	-124.118729	11.755714	1549.769928
2.680000	-125.849121	9.747316	1549.615234
2.690000	-129.027962	8.742322	1550.407959
2.700000	-129.550991	7.496970	1551.828644
2.710000	-127.900398	6.889395	1552.775726
2.720000	-125.725769	6.443648	1553.091980
2.730000	-125.280334	6.036371	1557.676331
2.740000	-123.988075	6.000446	1565.739777
2.750000	-127.288063	3.936415	1566.065857
2.760000	-131.151409	2.039619	1562.915009
2.770000	-133.003956	1.830427	1559.764679
2.780000	-134.372105	3.188656	1554.717743
2.790000	-136.345116	3.175945	1550.301300
2.800000	-138.157005	3.037331	1547.621216
2.810000	-139.885181	2.769951	1549.049896
2.820000	-141.734676	0.891911	1554.429321
2.830000	-142.578434	-0.709213	1558.384247
2.840000	-142.293110	-1.871582	1561.230103
2.850000	-141.688915	-3.553459	1563.604706
2.860000	-141.123356	-6.001560	1565.659821
2.870000	-140.759586	-7.646561	1566.133850
2.880000	-141.238560	-7.846542	1568.189453
2.890000	-142.241241	-6.317268	1571.827087
2.900000	-142.482845	-4.823288	1573.568512
2.910000	-145.017685	-3.087994	1573.579010
2.920000	-148.599941	-2.554180	1575.485321
2.930000	-150.734425	-2.539871	1575.967407
2.940000	-151.538368	-3.130589	1581.029938
2.950000	-151.095482	-3.563614	1577.240936
2.960000	-150.610733	-3.758823	1575.187927
2.970000	-149.041302	-2.587551	1573.288055
2.980000	-147.349880	-0.976250	1569.963226
2.990000	-146.342281	0.510094	1573.114960
3.000000	-142.277653	0.426159	1575.789795
3.010000	-136.199017	-0.914894	1574.512390
3.020000	-131.489540	-2.574524	1572.131012
3.030000	-126.700939	-4.518383	1565.798950
3.040000	-122.474678	-5.091305	1557.891022
3.050000	-123.036167	-3.809071	1551.408661
3.060000	-125.289921	-0.995979	1543.505676
3.070000	-126.696018	1.817112	1530.705292
3.080000	-127.539776	3.869701	1523.750824
3.090000	-126.372402	3.787994	1518.691559
3.100000	-123.392635	3.423637	1518.371887
3.110000	-120.817978	1.733177	1512.358154
3.120000	-120.456757	0.642338	1510.457764
3.130000	-118.043228	1.153893	1511.712128
3.140000	-115.349298	1.180916	1505.696442
3.150000	-112.051178	2.323250	1496.361633
3.160000	-108.869282	4.271233	1493.509216
3.170000	-105.488640	5.344898	1487.808777
3.180000	-104.360743	6.580395	1482.430328
3.190000	-103.917858	6.581985	1472.947723
3.200000	-106.499472	6.512043	1462.836731
3.210000	-108.070091	7.921452	1450.986908
3.220000	-108.155489	9.295567	1440.714661
3.230000	-107.595028	10.661419	1426.646698
3.240000	-107.797155	12.542004	1417.002411
3.250000	-106.996271	13.736805	1407.036774
3.260000	-104.217783	15.398964	1398.807526
3.270000	-99.873098	15.572231	1391.526703
3.280000	-95.687668	14.582809	1386.298981
3.290000	-92.789055	12.950841	1385.342896
3.300000	-90.296413	9.402678	1379.963135
3.310000	-87.922531	5.927958	1373.953171
3.320000	-88.525362	3.897616	1370.319138
3.330000	-91.746735	1.232361	1358.469467
3.340000	-92.111015	-1.712678	1346.462341
3.350000	-94.282421	-4.863422	1334.138794
3.360000	-97.661362	-6.805058	1328.924988
3.370000	-99.952559	-8.142296	1329.875229
3.380000	-100.636543	-8.633510	1332.877274
3.390000	-99.591333	-7.994778	1338.088226
3.400000	-98.102724	-7.595452	1343.930222
3.410000	-96.735430	-6.472187	1352.302368
3.420000	-95.366938	-7.321393	1356.407990
3.430000	-94.561296	-6.730037	1359.723465
3.440000	-96.330996	-6.859121	1363.197372
3.450000	-98.786709	-6.024543	1363.988815
3.460000	-102.247829	-3.741768	1367.784103
3.470000	-103.373005	-0.852373	1373.635452
3.480000	-105.265543	1.242505	1378.855118
3.490000	-106.513737	1.975349	1387.865143
3.500000	-104.663559	2.101889	1398.295807
3.510000	-104.260656	1.216438	1407.304367
3.520000	-106.311602	1.936561	1416.628998
3.530000	-107.114695	3.098296	1423.895874
3.540000	-108.159571	3.374581	1430.691864
3.550000	-110.693050	3.573608	1440.648163
3.560000	-112.341766	3.375217	1449.662079
3.570000	-114.956577	2.098391	1459.626923
3.580000	-116.929768	0.460390	1467.695740
3.590000	-118.420918	-0.812302	1473.237701
3.600000	-120.554043	-1.238649	1482.253967
3.610000	-120.073204	-0.780499	1491.424927
3.620000	-120.316006	0.124668	1494.909821
3.630000	-121.243801	-0.973792	1496.494659
3.640000	-123.416061	-2.563148	1502.665192
3.650000	-125.988686	-2.186708	1508.045959
3.660000	-127.073708	-2.055716	1513.899750
3.670000	-128.400856	-4.942249	1517.066620
3.680000	-130.213413	-8.715187	1521.341644
3.690000	-131.462452	-11.571203	1525.141357
3.700000	-133.594391	-12.064324	1526.252106
3.710000	-134.999466	-9.670592	1532.260651
3.720000	-136.610752	-5.695447	1531.789856
3.730000	-137.859108	-0.872684	1530.210724
3.740000	-137.580406	2.672297	1529.421112
3.750000	-138.628330	5.693640	1528.316864
3.760000	-138.304039	7.623828	1526.420898
3.770000	-138.144100	7.067440	1517.886566
3.780000	-138.827579	6.267517	1509.509674
3.790000	-137.981098	6.106642	1506.820923
3.800000	-135.084026	6.429028	1504.285370
3.810000	-131.661869	8.345541	1500.960388
3.820000	-130.495178	9.740321	1498.588379
3.830000	-130.695271	8.760121	1497.323395
3.840000	-128.238197	8.422469	1496.372864
3.850000	-128.118069	7.810123	1494.320404
3.860000	-129.404037	7.070601	1488.791351
3.870000	-129.322544	7.543368	1485.631378
3.880000	-128.558754	7.185374	1479.312073
3.890000	-129.282047	6.621356	1470.146362
3.900000	-126.908337	5.381728	1460.818283
3.910000	-123.044994	2.497103	1446.275482
3.920000	-119.947140	-0.061957	1429.836197
3.930000	-116.810829	-1.736837	1416.715485
3.940000	-116.006718	-3.339549	1405.336075
3.950000	-117.899761	-3.180900	1398.856491
3.960000	-118.746738	-4.665023	1398.382477
3.970000	-118.385521	-4.629414	1397.274658
3.980000	-117.980915	-3.671476	1398.221725
3.990000	-114.721256	-1.065042	1399.322998
4.000000	-111.864666	2.870997	1403.110062
4.010000	-111.785378	6.368924	1402.630630
4.020000	-113.477306	8.141097	1400.889771
4.030000	-111.221855	10.066511	1396.615936
4.040000	-110.136654	10.748166	1392.506561
4.050000	-109.529919	10.020092	1390.607452
4.060000	-106.915621	9.735220	1389.976105
4.070000	-109.854725	10.215621	1391.875031
4.080000	-113.638268	11.300097	1397.409485
4.090000	-115.731747	12.105428	1400.571930
4.100000	-114.082172	12.752111	1402.306992
4.110000	-109.897083	12.313679	1402.146729
4.120000	-106.677746	11.344929	1395.031723
4.130000	-104.984966	12.296824	1382.865158
4.140000	-106.793972	14.932822	1364.219360
4.150000	-109.124296	16.845200	1345.260056
4.160000	-111.777908	17.156773	1320.928223
4.170000	-114.033360	16.719932	1301.022018
4.180000	-115.444042	15.679330	1286.804596
4.190000	-117.697624	15.276824	1273.376358
4.200000	-120.758556	17.566594	1260.738831
4.210000	-124.098694	18.968370	1250.471359
4.220000	-124.863503	21.011739	1240.991425
4.230000	-123.576515	22.293337	1229.770111
4.240000	-122.730888	23.334892	1224.549286
4.250000	-119.671490	25.139492	1222.172058
4.260000	-119.831429	26.666536	1220.583939
4.270000	-120.314472	28.231414	1223.580902
4.280000	-119.630146	29.871959	1226.105804
4.290000	-117.495499	30.586355	1226.890335
4.300000	-115.484364	30.743098	1229.412918
4.310000	-114.155693	28.611341	1237.464050
4.320000	-113.311256	25.638328	1249.465775
4.330000	-111.502258	23.268755	1260.832764
4.340000	-110.054649	22.666903	1265.722397
4.350000	-107.883915	23.918616	1272.667023
4.360000	-105.070202	25.411643	1278.981094
4.370000	-102.251902	26.775585	1282.133545
4.380000	-102.774256	26.496120	1293.348572
4.390000	-103.214085	25.578878	1304.246918
4.400000	-102.407938	23.979666	1317.356354
4.410000	-99.590990	22.222121	1328.411804
4.420000	-96.976015	20.622908	1336.626740
4.430000	-95.328480	20.709069	1345.948456
4.440000	-95.246813	20.833383	1360.171936
4.450000	-95.728670	21.441913	1371.708252
4.460000	-96.933655	21.963645	1381.034882
4.470000	-96.807924	22.723827	1385.779724
4.480000	-94.513672	22.207821	1389.576935
4.490000	-93.789534	21.658432	1388.952667
4.500000	-96.604435	21.947119	1388.491547
4.510000	-102.316080	22.638313	1387.713379
4.520000	-109.314203	21.676241	1385.199646
4.530000	-115.306767	19.467862	1386.951324
4.540000	-117.798054	16.097112	1390.909241
4.550000	-115.540901	13.410241	1392.335510
4.560000	-112.076563	12.893597	1391.543549
4.570000	-110.706205	13.063378	1392.649902
4.580000	-112.757492	14.155806	1397.077026
4.590000	-115.936340	15.885693	1404.667572
4.600000	-118.472532	16.968897	1413.206635
4.610000	-119.355427	18.486720	1416.530792
4.620000	-119.272408	21.206336	1420.642303
4.630000	-119.351866	24.331321	1424.281281
4.640000	-120.479422	27.297974	1426.022430
4.650000	-123.174711	29.748302	1433.453491
4.660000	-124.423752	30.353969	1436.140900
4.670000	-125.229053	30.197546	1441.516602
4.680000	-124.745842	28.673683	1446.414581
4.690000	-122.895664	26.544151	1447.836060
4.700000	-123.137106	25.097863	1450.839539
4.710000	-124.386311	24.574224	1456.057098
4.720000	-125.110287	24.246113	1454.476563
4.730000	-124.464760	24.356116	1454.791779
4.740000	-121.084803	23.506908	1453.207275
4.750000	-117.301428	21.929628	1449.410889
4.760000	-115.410250	20.793323	1440.084167
4.770000	-115.007347	20.536110	1431.704163
4.780000	-112.429634	21.398664	1418.421539
4.790000	-108.644907	22.739709	1405.451385
4.800000	-102.001213	23.921466	1395.956055
4.810000	-94.313320	23.503377	1384.563721
4.820000	-88.479009	22.574051	1373.174164
4.830000	-86.870103	22.293314	1356.573761
4.840000	-85.587018	22.541306	1345.188202
4.850000	-84.663122	22.141979	1341.862183
4.860000	-83.821742	21.704820	1341.226227
4.870000	-83.580300	21.702276	1348.492828
4.880000	-82.612512	23.538986	1351.494873
4.890000	-83.091314	26.860135	1355.602631
4.900000	-80.713017	28.617678	1360.970917
4.910000	-76.728533	29.781958	1365.230835
4.920000	-72.905176	30.181921	1364.276917
4.930000	-69.928633	29.743169	1363.954254
4.940000	-67.914787	29.096170	1362.842163
4.950000	-67.794319	28.970586	1362.205078
4.960000	-66.505638	29.444625	1364.569214
4.970000	-65.055145	31.003777	1368.676086
4.980000	-63.807628	31.969983	1375.943024
4.990000	-62.683299	33.182274	1380.842224
5.000000	-63.409816	32.589326	1387.483337
5.010000	-65.424517	30.386353	1393.651917
5.020000	-68.243493	28.097855	1395.554901
5.030000	-70.781558	27.734454	1398.090790
5.040000	-73.961425	27.566583	1398.253998
5.050000	-74.485130	28.922257	1397.940369
5.060000	-75.933415	29.918664	1400.155243
5.070000	-76.575894	30.311311	1408.056274
5.080000	-76.174686	30.152344	1413.271667
5.090000	-77.824764	30.038526	1421.018005
5.100000	-81.047327	29.888463	1427.348480
5.110000	-84.551656	30.096395	1427.675537
5.120000	-87.775066	30.148857	1425.946014
5.130000	-90.474094	30.992341	1420.738129
5.140000	-92.968266	31.150670	1414.740631
5.150000	-95.703709	30.421962	1410.162659
5.160000	-96.711145	28.811617	1406.845978
5.170000	-96.512407	25.115301	1402.896393
5.180000	-97.440889	22.382964	1398.312988
5.190000	-99.740574	20.940493	1392.309204
5.200000	-100.911858	20.663572	1388.516754
5.210000	-101.156012	20.939220	1374.289978
5.220000	-105.181154	21.494652	1365.758759
5.230000	-108.198193	22.490741	1354.062286
5.240000	-109.525169	24.084866	1341.417114
5.250000	-112.981869	26.718638	1335.096619
5.260000	-113.582491	30.640367	1325.297607
5.270000	-113.422554	31.925142	1315.816711
5.280000	-113.786491	32.296178	1308.861633
5.290000	-113.387321	31.144300	1302.698608
5.300000	-114.798336	29.062460	1298.114838
5.310000	-116.488739	28.950551	1295.426605
5.320000	-116.326763	29.837908	1294.945343
5.330000	-114.512161	31.406284	1294.938629
5.340000	-113.381210	33.821322	1296.827759
5.350000	-109.476015	34.515061	1302.980927
5.360000	-103.962084	34.521421	1309.770050
5.370000	-105.614029	34.153249	1320.207458
5.380000	-110.041063	32.698057	1320.216919
5.390000	-112.618099	31.405966	1321.489594
5.400000	-113.867645	31.884141	1325.285400
5.410000	-114.995380	32.486309	1333.032196
5.420000	-114.552315	34.170412	1342.356354
5.430000	-113.021687	35.739108	1349.149872
5.440000	-113.583168	36.345411	1361.474854
5.450000	-113.216686	35.945766	1375.852264
5.460000	-110.356531	34.385023	1392.756744
5.470000	-106.413561	33.026487	1409.343506
5.480000	-104.846674	33.057005	1419.774506
5.490000	-106.456940	33.160650	1427.049927
5.500000	-110.644236	34.598351	1437.329193
5.510000	-114.874065	36.406132	1443.978699
5.520000	-122.119228	36.292949	1447.945831
5.530000	-127.676033	37.386649	1453.016510
5.540000	-129.246307	39.849062	1459.505585
5.550000	-129.812042	42.601751	1466.780701
5.560000	-130.099918	45.477165	1476.898254
5.570000	-130.666153	47.623231	1483.540680
5.580000	-132.520569	49.881529	1493.186157
5.590000	-134.575253	51.012428	1498.092194
5.600000	-138.641068	51.418749	1504.106934
5.610000	-142.506958	49.458998	1503.958466
5.620000	-145.887764	48.297264	1505.702087
5.630000	-144.761734	47.186083	1507.759308
5.640000	-142.830574	47.232185	1514.079407
5.650000	-140.537674	48.441296	1515.818634
5.660000	-139.772362	49.527998	1513.135101
5.670000	-141.139484	49.012627	1512.508850
5.680000	-142.950356	47.857252	1509.037201
5.690000	-144.719372	46.942871	1509.518982
5.700000	-147.256588	45.066422	1507.312958
5.710000	-151.041145	42.659969	1504.638489
5.720000	-153.172909	41.333861	1501.169586
5.730000	-153.337261	38.318880	1499.280182
5.740000	-154.583076	34.453101	1499.286682
5.750000	-154.419743	31.229233	1495.973358
5.760000	-153.615803	28.697831	1486.808655
5.770000	-152.123798	26.204264	1480.014954
5.780000	-149.344460	24.159622	1471.637756
5.790000	-148.216053	21.553507	1454.255615
5.800000	-147.569336	18.629775	1442.719101
5.810000	-145.917725	15.826223	1430.234131
5.820000	-143.461670	15.193853	1426.281097
5.830000	-141.049160	17.885811	1425.807205
5.840000	-141.211140	21.260378	1424.390991
5.850000	-141.332790	23.869355	1420.760208
5.860000	-140.008022	26.077734	1419.970764
5.870000	-139.484486	26.035765	1416.334305
5.880000	-138.355907	26.307916	1410.326797
5.890000	-138.514832	26.466565	1401.473709
5.900000	-137.747814	27.630845	1392.935791
5.910000	-135.656715	30.371449	1382.182007
5.920000	-133.524101	32.513065	1376.015411
5.930000	-131.873005	33.608356	1374.904587
5.940000	-129.621792	32.852308	1379.167053
5.950000	-128.132164	30.758066	1378.219955
5.960000	-129.700573	27.284934	1376.642166
5.970000	-131.430962	24.051209	1372.537704
5.980000	-131.468742	21.579255	1367.794632
5.990000	-129.498951	20.037264	1360.363556
6.000000	-127.325844	18.498455	1351.666031
6.010000	-125.433475	18.485416	1342.652054
6.020000	-123.705471	18.927028	1334.427414
6.030000	-122.296486	19.012236	1326.993881
6.040000	-122.340378	20.465838	1322.088181
6.050000	-121.380230	21.722322	1315.919266
6.060000	-119.573097	22.280297	1308.802124
6.070000	-118.045353	23.550763	1298.682159
6.080000	-117.321548	24.255303	1290.301498
6.090000	-118.083977	25.357578	1279.863144
6.100000	-117.198196	25.820168	1268.315262
6.110000	-113.698967	27.293478	1248.700729
6.120000	-107.264702	30.372679	1222.913223
6.130000	-96.968628	33.366672	1198.224503
6.140000	-83.898485	36.479572	1168.313019
6.150000	-70.388504	36.928490	1142.510574
6.160000	-60.415535	33.871845	1125.402374
6.170000	-54.337742	28.805534	1106.091324
6.180000	-52.963482	24.917492	1081.096573
6.190000	-53.157803	22.614048	1057.843094
6.200000	-48.762945	20.675911	1041.858795
6.210000	-41.437976	19.664555	1035.987625
6.220000	-38.063115	17.688267	1035.343521
6.230000	-38.303366	15.813713	1030.441727
6.240000	-40.714005	12.325638	1029.964569
6.250000	-42.681417	7.562321	1036.599655
6.260000	-41.916099	4.583900	1047.024750
6.270000	-39.301629	4.342907	1052.077103
6.280000	-35.882707	7.921589	1058.237015
6.290000	-37.014171	13.355743	1067.086441
6.300000	-38.666286	16.945557	1078.621506
6.310000	-39.754709	17.037441	1096.003174
6.320000	-41.040336	14.390949	1112.598663
6.330000	-42.125871	12.463306	1129.039444
6.340000	-43.129907	13.709614	1141.216843
6.350000	-45.787250	17.209450	1156.714264
6.360000	-50.738333	21.831593	1166.052490
6.370000	-57.982653	23.963352	1175.708618
6.380000	-63.011839	22.238552	1186.784058
6.390000	-64.256973	18.504402	1199.118225
6.400000	-61.437145	14.487289	1212.869934
6.410000	-58.299644	12.642628	1225.040771
6.420000	-55.724990	15.297073	1234.684753
6.430000	-57.297812	19.802532	1246.859863
6.440000	-62.206366	22.784769	1258.407715
6.450000	-67.841780	21.629715	1260.951904
6.460000	-71.180729	17.736595	1258.911041
6.470000	-74.477661	12.876320	1253.864929
6.480000	-75.363104	10.432350	1246.131485
6.490000	-76.409334	11.890406	1237.290924
6.500000	-78.380482	15.803875	1224.180038
6.510000	-81.156929	19.270330	1208.226044
6.520000	-84.571945	17.390696	1194.010452
6.530000	-87.548658	13.946507	1181.058167
6.540000	-89.959635	9.371733	1171.422043
6.550000	-90.882008	5.110765	1167.626480
6.560000	-88.225681	6.800911	1170.619995
6.570000	-83.433182	11.578205	1174.558762
6.580000	-78.164932	13.165979	1176.286652
6.590000	-71.647476	13.310648	1174.855545
6.600000	-68.507599	12.841696	1177.218994
6.610000	-66.696901	9.762497	1180.692810
6.620000	-67.577928	9.122175	1178.320007
6.630000	-70.635628	11.851649	1175.318115
6.640000	-71.400436	12.738053	1181.008698
6.650000	-70.031950	14.139830	1185.749588
6.660000	-68.544188	14.549333	1191.123947
6.670000	-67.657900	14.672692	1199.025482
6.680000	-67.375119	13.830164	1211.038361
6.690000	-66.730266	13.913464	1226.054199
6.700000	-65.041219	15.966692	1234.430786
6.710000	-63.510420	17.895607	1241.386841
6.720000	-62.867941	18.501910	1250.240204
6.730000	-62.546196	18.864038	1254.196228
6.740000	-67.170947	18.339443	1258.470276
6.750000	-72.321787	18.422108	1261.325348
6.760000	-75.986223	18.227534	1268.126556
6.770000	-75.744785	19.035090	1280.301483
6.780000	-74.460344	19.926266	1285.997009
6.790000	-74.215849	20.413662	1287.898895
6.800000	-75.664137	18.123891	1292.644714
6.810000	-79.566103	14.990956	1300.713043
6.820000	-82.421162	11.177640	1307.991394
6.830000	-84.192215	7.724862	1315.424469
6.840000	-83.425539	7.444124	1320.330017
6.850000	-83.787951	9.982840	1321.601044
6.860000	-83.709171	13.005136	1323.186707
6.870000	-82.860317	15.981966	1320.974640
6.880000	-81.287832	18.997903	1318.443848
6.890000	-77.058346	20.574230	1315.909637
6.900000	-69.290488	22.676103	1313.525848
6.910000	-60.438455	25.226905	1307.351227
6.920000	-54.443347	29.184252	1297.223846
6.930000	-48.533475	33.501184	1291.523560
6.940000	-44.672852	37.966906	1278.871826
6.950000	-41.332538	42.052053	1266.063416
6.960000	-37.271482	43.239538	1257.993774
6.970000	-33.248539	40.003904	1253.404633
6.980000	-31.880224	35.798248	1252.765747
6.990000	-31.760268	33.892220	1256.232483
7.000000	-30.271997	32.316529	1258.119141
7.010000	-29.107173	32.507925	1265.378693
7.020000	-26.131820	34.033061	1273.587952
7.030000	-20.700068	35.482846	1271.843475
7.040000	-16.394344	36.925635	1268.047272
7.050000	-17.765038	36.320287	1260.936646
7.060000	-24.527159	35.834478	1255.728485
7.070000	-31.810271	36.267505	1262.051727
7.080000	-28.512153	36.065297	1264.101410
7.090000	-25.454623	35.778202	1265.044067
7.100000	-26.583538	35.655794	1278.319458
7.110000	-29.561948	35.940665	1291.440186
7.120000	-32.540867	38.596701	1302.820587
7.130000	-36.282726	41.169435	1307.090210
7.140000	-37.853002	41.967134	1311.994934
7.150000	-37.651042	42.604273	1317.689972
7.160000	-39.503080	43.767916	1321.961395
7.170000	-41.918306	43.291652	1323.706299
7.180000	-47.994230	41.081999	1330.984009
7.190000	-54.271948	40.562176	1339.999298
7.200000	-57.452659	40.930981	1347.752350
7.210000	-57.856074	40.856589	1355.344147
7.220000	-57.413694	40.537700	1361.196991
7.230000	-58.097683	41.019372	1366.579865
7.240000	-60.349403	41.337306	1369.433319
7.250000	-64.373531	42.794406	1372.919037
7.260000	-67.594398	44.219715	1369.140289
7.270000	-71.862173	45.451086	1366.785675
7.280000	-77.015728	46.325100	1367.750488
7.290000	-81.365004	46.389009	1365.401733
7.300000	-88.732666	44.920790	1365.266052
7.310000	-95.654900	42.395430	1364.338776
7.320000	-99.034855	41.068048	1361.037354
7.330000	-100.810150	39.740351	1356.784790
7.340000	-101.700687	38.730268	1348.896667
7.350000	-104.681137	37.600007	1339.900085
7.360000	-109.196461	35.511807	1335.327469
7.370000	-111.532223	32.207501	1334.858185
7.380000	-111.971889	29.812171	1338.811752
7.390000	-111.207253	28.668234	1343.392014
7.400000	-108.147682	28.895235	1346.864853
7.410000	-106.377312	30.813336	1351.918182
7.420000	-107.709209	31.939465	1355.391632
7.430000	-109.603779	32.751155	1358.394348
7.440000	-113.188587	33.600046	1363.454880
7.450000	-116.125313	33.161931	1360.770370
7.460000	-116.685440	32.600775	1361.722717
7.470000	-118.053078	32.602048	1363.782593
7.480000	-120.465248	32.201131	1365.839325
7.490000	-121.308834	32.839226	1374.216064
7.500000	-122.757797	32.113696	1382.116119
7.510000	-122.957211	30.742122	1389.541641
7.520000	-120.260056	29.206809	1393.168594
7.530000	-117.604073	28.674266	1401.697723
7.540000	-116.235592	29.347649	1407.534180
7.550000	-114.666157	31.626292	1419.377777
7.560000	-113.137733	36.190248	1426.321381
7.570000	-115.634624	40.316727	1429.954742
7.580000	-116.763374	41.509302	1435.167572
7.590000	-114.711578	41.254632	1436.903290
7.600000	-115.757469	40.359324	1436.902954
7.610000	-118.615582	40.476004	1436.431183
7.620000	-121.232773	41.798295	1438.328674
7.630000	-121.597218	43.888402	1439.436188
7.640000	-122.767311	46.219824	1439.753235
7.650000	-122.003517	48.143014	1433.591400
7.660000	-120.757534	50.184792	1434.065277
7.670000	-120.835636	52.018640	1436.594055
7.680000	-121.398315	52.968945	1438.806976
7.690000	-123.131081	53.045251	1437.067932
7.700000	-122.972157	53.882053	1434.381470
7.710000	-122.252430	53.802888	1431.696533
7.720000	-121.007633	53.921795	1425.059326
7.730000	-119.922607	54.201259	1417.791931
7.740000	-120.366684	54.245137	1408.311432
7.750000	-122.860523	54.884503	1396.144745
7.760000	-125.194756	56.333973	1382.872925
7.770000	-126.043270	57.350730	1373.709381
7.780000	-125.801495	57.841629	1364.070984
7.790000	-126.408058	59.423040	1351.115753
7.800000	-126.452454	60.770455	1333.102859
7.810000	-125.286446	61.511567	1304.970581
7.820000	-120.781307	62.292106	1269.404846
7.830000	-108.912407	62.998245	1215.184296
7.840000	-91.044151	62.534065	1143.727112
7.850000	-74.864609	56.240538	1062.312805
7.860000	-64.886038	51.366594	976.472229
7.870000	-59.727898	48.971910	888.101227
7.880000	-54.131960	43.008402	803.045715
7.890000	-51.958683	37.415926	725.418671
7.900000	-48.013674	32.774711	654.587440
7.910000	-35.259502	28.851710	598.925941
7.920000	-13.091301	26.046887	545.947762
7.930000	6.783836	25.195454	495.341759
7.940000	21.510173	23.618490	447.111328
7.950000	31.489424	20.112933	400.620270
7.960000	36.480661	16.324093	354.610287
7.970000	37.128740	12.092687	312.078999
7.980000	36.486605	8.828124	269.864449
7.990000	36.448997	6.605752	232.235445
8.000000	32.507384	5.392190	199.352736
8.010000	28.924277	5.789290	172.001506
8.020000	25.178514	4.871095	144.650131
8.030000	22.924756	4.189442	119.987471
8.040000	18.620392	3.584409	94.377071
8.050000	22.002727	1.295911	72.082650
8.060000	27.395002	-1.876448	47.413286
8.070000	25.253221	-0.749048	31.919432
8.080000	25.288450	1.677121	17.685314
8.090000	24.677810	3.660406	11.200007
8.100000	20.241435	7.170417	12.150050
8.110000	19.717048	9.193125	16.729536
8.120000	23.180201	8.873919	24.316949
8.130000	27.327002	7.026396	33.326808
8.140000	26.524756	7.192678	38.384097
8.150000	24.791992	8.325484	43.127275
8.160000	18.553920	10.293186	41.864754
8.170000	15.862366	12.619200	45.341804
8.180000	14.015249	11.247307	33.011219
8.190000	15.428475	6.218840	31.430979
8.200000	13.983924	1.631348	20.050763
8.210000	12.460423	-0.303609	11.830863
8.220000	8.679258	1.053019	3.137251
8.230000	3.047921	0.487729	-2.708684
8.240000	2.002879	0.969719	-9.349819
8.250000	2.243808	1.409741	-10.772756
8.260000	1.041034	-0.361478	-8.556257
8.270000	0.640676	-2.332360	-5.237655
8.280000	0.238279	-3.055663	-3.182722
8.290000	-0.405384	-3.213358	3.932290
8.300000	0.879736	-0.881938	6.302322
8.310000	1.159631	0.808843	5.669505
8.320000	0.236072	0.447033	4.720443
8.330000	-0.849973	-1.522895	3.773020
8.340000	-1.652897	-2.129199	2.033675
8.350000	-1.651369	-2.652839	1.875062
8.360000	-0.687995	-1.408440	0.769680
8.370000	1.604388	0.284249	0.609920
8.380000	1.643694	2.052924	1.242572
8.390000	-0.570418	3.415277	-2.235463
8.400000	-0.245784	1.086718	-4.291216
8.410000	0.157461	-0.641897	-4.448519
8.420000	-0.326094	-0.079151	-2.867132
8.430000	-0.728829	1.408469	-0.179544
8.440000	0.113231	3.621618	0.610738
8.450000	0.635921	3.865793	1.240606
8.460000	3.252260	2.741574	3.456120
8.470000	-0.850822	2.613444	0.135879
8.480000	0.117815	0.121148	5.194974
8.490000	-1.533961	-0.520445	-4.606969
8.500000	-0.166324	0.805981	2.506732
8.510000	-1.374870	2.372131	-1.126969
8.520000	-0.772719	3.135812	-2.866969
8.530000	0.557989	1.165884	0.292528
8.540000	2.650788	-1.930490	-0.814164
8.550000	-0.325754	-2.175619	0.294495
8.560000	-0.648180	-1.449136	-0.024043
8.570000	-2.743186	-0.323326	1.718250
8.580000	-0.208176	-0.240981	0.767550
8.590000	2.005426	0.439718	-0.971958
8.600000	1.604728	-0.885754	2.821829
8.610000	-0.326433	-2.332360	2.507879
8.620000	-1.453142	-1.929854	0.769025
8.630000	-1.494316	-0.603745	-0.970484
8.640000	-0.891486	0.280115	1.716120
8.650000	0.274359	0.844769	0.293675
8.660000	0.877868	1.167474	-0.181019
8.670000	0.517325	0.361507	1.400695
8.680000	0.034959	0.158664	-0.178726
8.690000	-0.326773	0.120512	-0.970483
8.700000	-0.488920	1.046340	0.135389
8.710000	0.073416	2.292329	-1.287384
8.720000	0.153556	3.056328	-0.812526
8.730000	-0.127697	2.573702	-0.180528
8.740000	0.637619	1.770597	0.292693
8.750000	0.558329	1.045386	-0.812525
8.760000	-0.045181	0.921709	-0.022733
8.770000	0.074095	0.843179	0.452781
8.780000	-0.288656	1.930201	0.292692
8.790000	-0.771361	2.372131	-1.445834
8.800000	-0.611252	1.687616	-0.654075
8.810000	-0.367777	-0.000940	-1.444523
8.820000	0.397710	-1.127385	0.135554
8.830000	0.397540	-1.086689	1.242245
8.840000	-0.126678	-0.604699	1.243392
8.850000	-0.811855	0.521428	0.610411
8.860000	-1.134281	0.241009	1.717595
8.870000	-0.690372	-0.404718	0.136209
8.880000	0.195917	-1.531482	-1.445179
8.890000	0.559008	-2.053532	0.295151
8.900000	0.396861	-1.972776	-0.337994
8.910000	-0.972983	-0.324598	0.453108
8.920000	-0.490448	0.963041	0.294166
8.930000	-0.128207	1.245685	-0.813345
8.940000	0.234884	0.000332	0.768861
8.950000	0.316382	-0.443506	1.084287
8.960000	0.195748	-0.161179	1.400368
8.970000	0.074435	0.965585	0.926492
8.980000	0.073586	1.850717	0.293183
8.990000	-0.490448	2.413463	-0.495953
9.000000	0.234714	1.930201	-0.970811
9.010000	0.677944	1.487634	-0.179873
9.020000	0.235733	0.963359	0.135061
9.030000	-0.408101	0.884193	-0.971303
9.040000	-0.449274	1.286699	0.769353
9.050000	0.113401	2.090122	0.610575
9.060000	1.159631	1.848491	1.241918
9.070000	0.555952	0.883239	-0.495953
9.080000	-0.288146	0.158982	0.294167
9.090000	-1.173417	-0.202829	-0.337502
9.100000	-0.650048	-0.444778	0.610412
9.110000	0.757914	-0.444778	-0.813345
9.120000	0.958178	-0.364976	0.610576
9.130000	-0.249180	0.078862	1.242737
9.140000	-0.610912	-0.564957	0.295314
9.150000	-0.811346	-0.565594	1.242410
9.160000	-1.091920	-1.410984	0.769189
9.170000	0.597804	-1.448818	1.083796
9.180000	0.958517	-0.847284	-0.971139
9.190000	-0.167512	-0.084240	1.242245
9.200000	-0.530772	0.319221	-0.337831
9.210000	-0.208686	0.681986	-0.812526
9.220000	-0.327961	-0.241935	0.295641
9.230000	-0.086184	-0.605335	1.084615
9.240000	0.396012	0.520792	1.716612
9.250000	0.636091	1.046340	0.925673
9.260000	0.153046	1.888551	-0.812034
9.270000	-0.329320	2.292011	-0.022241
9.280000	0.475812	1.446939	-0.338978
9.290000	0.516816	0.802483	1.085597
9.300000	0.597125	0.562760	-0.814164
9.310000	-0.248840	1.203399	0.927639
9.320000	-0.249010	1.848809	-0.179872
9.330000	0.354159	1.688252	0.293676
9.340000	0.153725	1.566164	0.452453
9.350000	0.073925	0.521110	0.766568
9.360000	0.074265	-0.042272	1.716448
9.370000	-0.046539	-0.163405	0.451634
9.380000	-0.409459	-0.323644	0.292856
9.390000	-0.409629	0.278843	0.767551
9.400000	0.194389	-0.001894	0.925674
9.410000	0.395672	-0.685455	0.609920
9.420000	0.033771	-1.048220	1.242574
9.430000	-0.690712	-0.887344	-0.023224
9.440000	-0.488920	-1.007524	-0.813344
9.450000	-0.329320	-0.444778	1.084286
9.460000	0.355518	-0.001576	-0.022077
9.470000	0.595936	-0.162133	-0.180527
9.480000	0.113401	-0.081695	0.451797
9.490000	-0.650897	0.360235	-0.496117
9.500000	-0.569908	0.319857	0.135881
9.510000	0.073925	0.319539	-0.179872
9.520000	0.797899	0.762741	0.451797
9.530000	0.757065	1.246003	-0.813180
9.540000	-0.007573	1.527376	0.926492
9.550000	-0.570248	1.487316	-0.181347
9.560000	0.234544	1.246321	-0.181347
9.570000	-0.006214	0.882285	0.294986
9.580000	0.636600	0.922981	1.400531
9.590000	0.837884	1.204671	0.924854
9.600000	-0.249180	1.607496	-0.021423
9.610000	-0.731885	1.445348	-0.022077
9.620000	-0.128207	1.084492	1.085925
9.630000	-0.328640	-0.042590	0.451470
9.640000	0.275208	-0.525534	0.926821
9.650000	0.234884	0.197769	1.717596
9.660000	-0.127867	0.078544	0.925837
9.670000	-0.490278	0.279479	1.242574
9.680000	-0.932829	0.077590	0.452453
9.690000	-0.369305	-0.604063	2.033513
9.700000	0.034280	-0.526488	2.033021
9.710000	0.355857	-1.290169	0.610576
9.720000	-0.329659	-0.242253	0.136045
9.730000	-0.611082	0.519838	0.768698
9.740000	-0.329150	-0.163723	0.136373
9.750000	0.314853	0.157392	-0.023388
9.760000	-0.167682	0.078862	1.084778
9.770000	0.113401	-0.082013	0.768206
9.780000	-1.133432	0.317631	0.136865
9.790000	-0.128037	0.722681	0.294166
9.800000	0.997653	0.963041	-1.131063
9.810000	0.434978	1.122644	0.451634
9.820000	-0.369644	0.560216	0.137847
9.830000	-0.168531	0.840953	2.507715
9.840000	0.918023	0.561170	-0.496935
9.850000	-0.048067	1.082584	1.401515
9.860000	-0.088052	0.841271	1.084779
9.870000	0.595257	0.682304	0.294495
9.880000	-0.250029	1.082584	-0.655058
9.890000	-0.168191	0.599958	-0.496280
9.900000	-0.087882	0.317631	0.609593
9.910000	0.394654	0.156438	0.294495
9.920000	0.314514	-0.003166	1.084615
9.930000	0.193031	-0.003166	1.558654
9.940000	-0.289844	0.198087	1.084615
9.950000	-0.691900	0.197451	0.768862
9.960000	-0.490787	-0.283585	0.610904
9.970000	-0.168361	-0.285493	-0.021585
9.980000	-0.047897	-0.808497	0.926165
9.990000	0.636431	-0.366566	1.558490
10.000000	0.273680	-0.083921	0.610248
10.010000	-0.974342	0.237193	-0.495625
10.020000	-1.255764	0.317313	0.611067
10.030000	-0.209365	0.076954	-0.337994
10.040000	0.596276	-0.123663	0.294331
10.050000	0.475133	0.438764	0.926001
10.060000	0.072397	0.760515	-0.812525
10.070000	-0.571946	0.881649	-0.022241
10.080000	-0.249859	1.245049	1.242409
10.090000	-0.732904	1.120100	1.558818
10.100000	0.515457	0.680714	1.083796
10.110000	-0.289165	0.197133	0.451962
10.120000	0.112891	0.600594	-0.021913
10.130000	-0.410818	1.563302	0.926657
10.140000	-0.450463	1.161750	0.135717
10.150000	-0.370153	0.760515	1.241918
10.160000	0.153046	0.517294	0.769354
10.170000	-0.088561	0.195861	0.609757
10.180000	-0.370153	0.075046	0.767551
10.190000	-0.208856	0.316995	1.242737
10.200000	-0.088901	0.596778	0.926001
10.210000	0.031563	0.115424	0.136045
10.220000	-0.329829	0.155483	0.926493
10.230000	-0.088391	-0.125253	0.768699
10.240000	-0.651576	-0.408534	0.768207
10.250000	-0.490618	-0.004756	0.927476
10.260000	-0.128716	-0.084876	-0.969500
10.270000	0.314005	-0.045770	-0.180035
10.280000	-0.128037	-0.285811	0.768862
10.290000	-0.410138	-0.083603	0.926329
10.300000	-0.732225	0.438446	0.294987
10.310000	-0.892844	0.316995	1.558654
10.320000	0.193710	0.197133	0.294823
10.330000	0.596106	0.680077	-0.653747
10.340000	0.274189	0.600276	1.085270
10.350000	0.032073	0.922345	1.083959
10.360000	-0.852859	1.282883	-0.179380
10.370000	-0.249180	1.122962	-0.180856
10.380000	-0.369984	0.600594	0.451798
10.390000	0.072907	1.162704	-0.337338
10.400000	0.274020	0.921709	0.926165
10.410000	-0.088561	0.962404	0.609921
10.420000	-0.451142	1.565528	1.242082
10.430000	-0.852350	1.121372	-0.811541
10.440000	-0.007403	0.478824	2.191635
10.450000	0.435488	0.478188	-0.497591
10.460000	0.113740	0.116060	0.926657
10.470000	-0.530942	-0.043226	0.767060
10.480000	-0.289335	0.357055	0.926493
10.490000	-0.249010	0.037212	0.294167
10.500000	-0.369984	-0.164995	0.294495
10.510000	-0.128037	-0.245115	2.507716
10.520000	-0.007573	-0.204419	-0.337994
10.530000	-0.248331	-0.244479	-0.496607
10.540000	-0.007233	0.075682	2.190652
10.550000	0.958178	0.678487	-0.022405
10.560000	-0.933168	0.239737	-0.337666
10.570000	-2.059877	-1.124841	1.876374
10.580000	1.482906	-0.485156	1.084288
10.590000	1.361593	0.638428	-0.021749
10.600000	-1.415025	0.240055	0.610740
10.610000	-0.852350	0.404111	1.400204
10.620000	0.112212	0.964312	1.083140
10.630000	0.516646	1.404017	0.294167
10.640000	0.356197	0.480096	0.610904
10.650000	-0.972135	-0.280086	-0.337993
10.660000	-1.052444	0.482641	-0.021422
10.670000	0.234374	1.445984	0.611232
10.680000	0.515967	1.486998	-0.654730
10.690000	0.032922	1.449165	1.084287
10.700000	-0.409289	0.845405	0.610084
10.710000	-0.770852	0.560852	1.085598
10.720000	-0.046369	0.561488	1.400696
10.730000	0.073925	0.523018	2.032530
10.740000	-0.047388	0.684212	1.874899
10.750000	0.233865	1.003418	0.135226
10.760000	-0.047388	1.243777	-0.178889
10.770000	-0.972814	0.198405	-0.179872
10.780000	-1.012289	-0.524262	-0.020766
10.790000	0.033940	-0.646667	-0.338158
10.800000	0.717250	-0.325553	1.242901
10.810000	0.153895	-0.041954	0.768043
10.820000	-0.289844	0.441627	1.243556
10.830000	-0.530942	0.479778	1.084943
10.840000	-0.449954	-0.123981	1.242573
10.850000	0.274869	-0.525534	0.768370
10.860000	-0.086694	-1.048538	0.293349
10.870000	-0.168701	-0.124935	0.135882
10.880000	-0.047727	0.399341	-0.337502
10.890000	-0.048237	0.801529	-0.179053
10.900000	0.113061	0.519838	-0.021585
10.910000	-0.449954	0.199678	-0.021421
10.920000	-0.127697	-0.082331	1.084943
10.930000	0.233695	0.239101	1.084779
10.940000	-0.208346	0.964312	1.242082
10.950000	0.192522	1.445348	-0.022405
10.960000	0.353990	1.487634	1.401187
10.970000	0.233356	0.802165	1.242737
10.980000	0.153046	0.481050	0.136537
10.990000	-0.530263	0.239101	0.767880
11.000000	-0.289335	0.641290	-0.338650
11.010000	-0.088222	0.842225	-0.021749
11.020000	0.193031	0.842225	0.926657
11.030000	0.474284	0.480414	-0.021913
11.040000	-0.168701	0.116696	-0.023060
11.050000	-0.691391	-0.003166	0.452126
11.060000	-0.892334	-0.527124	-0.021913
11.070000	0.193880	-0.203465	0.768535
11.080000	0.635752	0.318267	0.451307
11.090000	0.514608	0.198087	0.769026
11.100000	-0.128546	-0.323962	2.507388
11.110000	-0.772380	-0.325553	1.243720
11.120000	-0.771870	-0.887662	0.452291
11.130000	0.233695	-0.406308	1.084452
11.140000	0.193371	0.238147	-0.022733
11.150000	0.193541	0.682622	1.400204
11.160000	0.152707	0.641608	0.294986
11.170000	0.032582	0.600912	-0.654238
11.180000	-0.410308	0.599958	1.874571
11.190000	-0.288825	0.198723	0.294167
11.200000	-0.007063	0.521110	-0.338321
11.210000	0.153386	0.722681	0.768043
11.220000	0.273680	1.323579	1.084780
11.230000	-0.128716	1.003418	0.294495
11.240000	-0.169210	0.603138	1.241917
11.250000	-0.368965	0.518566	0.926657
11.260000	-0.007063	-0.003484	-0.180363
11.270000	0.194050	0.721409	-0.180690
11.280000	-0.128546	0.803437	0.609756
11.290000	-0.571267	0.359281	0.768862
11.300000	-0.248671	0.760515	-0.654730
11.310000	0.113571	-0.042272	0.135718
11.320000	-0.167852	-0.363704	0.136045
11.330000	-0.851670	-0.605971	1.244048
11.340000	-0.288995	0.199678	0.926329
11.350000	-0.168701	0.319539	1.558327
11.360000	0.193880	0.239101	0.610740
11.370000	0.032922	0.119240	0.767388
11.380000	-0.449784	-0.043226	0.293676
11.390000	-0.328810	-0.685773	0.452126
11.400000	-0.168361	0.197451	-0.337830
11.410000	0.113061	0.117968	0.926493
11.420000	-1.214930	0.599958	1.401843
11.430000	2.689075	0.642562	1.557672
11.440000	-1.416553	0.963359	0.294167
11.450000	-0.650897	-0.322054	2.350249
11.460000	0.354669	0.599958	-1.445341
11.470000	-0.531112	0.602184	0.927804
11.480000	0.154065	0.440673	-0.338485
11.490000	0.394484	0.640654	-0.338485
11.500000	-0.933508	1.004372	0.927640
11.510000	0.716910	0.882603	0.293512
11.520000	-0.450633	0.118286	-0.495952
11.530000	-0.368286	-2.730414	1.560621
11.540000	0.918532	0.593915	1.241918
11.550000	1.077453	1.082584	1.083632
11.560000	-0.087542	-0.560505	-0.179872
11.570000	-2.179492	-1.045675	0.294495
11.580000	-0.934187	0.278843	3.298163
11.590000	2.567592	2.926290	-0.496935
11.600000	2.446958	-0.397404	0.451143
11.610000	-1.857576	-2.044309	1.717760
11.620000	-1.615798	2.525056	0.769517
11.630000	1.319061	2.650324	-0.812033
11.640000	0.795861	0.925525	0.135062
11.650000	-1.415534	0.081088	1.400532
11.660000	-0.691561	0.641290	-0.022077
11.670000	0.637619	0.836819	-0.022569
11.680000	1.601672	-0.804362	-0.656204
11.690000	-0.451312	0.200632	1.084943
11.700000	-1.617496	0.961132	0.453273
11.710000	0.032582	-0.123663	0.927312
11.720000	1.038827	0.278525	0.293677
11.730000	0.153386	-0.482294	0.135554
11.740000	-0.530093	-0.805634	0.611560
11.750000	-0.087033	0.157392	2.349429
11.760000	-0.007912	0.401249	0.611395
11.770000	0.273510	0.842543	0.926165
11.780000	-0.329489	0.120194	0.768371
11.790000	-0.450633	0.559580	-0.022077
11.800000	0.797899	-0.083603	0.768207
11.810000	0.234374	-0.283267	-0.180035
11.820000	-0.329489	0.600594	1.559637
11.830000	0.192861	0.881967	1.875063
11.840000	0.152707	0.561806	1.716777
11.850000	-0.048237	0.841589	0.136373
11.860000	0.032922	0.078226	0.451962
11.870000	-0.007403	0.197451	-0.811377
11.880000	-0.328980	0.038166	0.294332
11.890000	0.555272	0.520792	1.242246
11.900000	0.071888	1.003100	1.558818
11.910000	-0.089240	1.123916	1.400696
11.920000	-0.209195	0.680077	0.451963
11.930000	-0.409969	-0.043544	1.243557
11.940000	-0.127867	-0.485474	1.084779
11.950000	0.194050	0.157392	1.242738
11.960000	-0.088052	0.158028	2.033021
11.970000	-0.209195	0.398387	0.294824
11.980000	0.111873	0.358963	0.295642
11.990000	-0.651916	-0.203783	0.926329
12.000000	-0.611252	-1.208459	0.294004
12.010000	-0.007063	-0.928040	0.452454
12.020000	-0.087882	-0.364976	0.610576
12.030000	0.393805	-0.163405	-0.338649
12.040000	0.232676	0.361507	0.926002
12.050000	-0.490448	0.722363	0.293676
12.060000	-0.047558	-0.163405	1.559146
12.070000	0.194389	-0.404082	1.399877
12.080000	0.113061	-0.122391	-1.286563
12.090000	-0.007573	0.600912	1.243393
12.100000	0.474114	1.204989	-0.338649
12.110000	0.193031	1.366183	1.083469
12.120000	0.072397	0.964630	-0.021585
12.130000	0.314344	1.083220	1.084779
12.140000	0.394654	0.641926	0.135390
12.150000	0.153725	0.843497	1.242737
12.160000	0.153046	1.243777	0.452290
12.170000	-0.048576	1.122962	-0.021749
12.180000	0.514778	1.404971	-0.337666
12.190000	0.072567	0.882285	0.926820
12.200000	-0.209025	0.117650	0.136374
12.210000	-0.208176	-0.123981	1.084615
12.220000	-0.289335	0.036894	-1.286727
12.230000	0.072397	0.157074	0.926002
12.240000	0.273171	-0.083603	0.136046
12.250000	-0.289844	-0.244797	1.558654
12.260000	-0.169210	-0.405990	1.560129
12.270000	0.032752	-0.728059	1.085599
12.280000	-0.007403	-1.008796	0.609921
12.290000	-0.409799	-1.049492	1.242410
12.300000	-0.168701	-0.647303	1.084780
12.310000	0.433959	-0.364976	1.242410
12.320000	0.152537	0.037530	1.715794
12.330000	-0.249010	-0.324917	0.612379
12.340000	-0.329829	-0.365612	-0.019455
12.350000	0.113231	-0.244161	1.559146
12.360000	0.353990	0.198405	-0.338485
12.370000	0.071888	0.479778	-0.495296
12.380000	-0.210214	1.324851	-0.022078
12.390000	0.272661	0.923617	0.136537
12.400000	0.112722	0.841589	0.136865
12.410000	0.193371	0.961450	-0.337830
12.420000	0.354329	0.561170	-0.179871
12.430000	0.393974	1.122962	1.083960
12.440000	0.112043	1.646602	-0.022732
12.450000	0.111873	1.525468	0.768534
12.460000	0.071548	1.081948	0.453437
12.470000	-0.008082	0.520156	-0.654074
12.480000	0.474793	0.197769	0.769354
12.490000	-0.128716	0.196497	0.768207
12.500000	0.072397	0.157710	0.135883
12.510000	-0.048916	0.278525	-0.179543
12.520000	-0.048576	-0.003802	0.452454
12.530000	0.152537	-0.406626	1.083632
12.540000	0.032582	-0.970008	0.136373
12.550000	-0.209025	-1.049810	0.293349
12.560000	-0.289844	-0.647621	2.348939
12.570000	-0.169210	-0.687045	0.926166
12.580000	-0.088901	-0.325871	1.084616
12.590000	-0.249689	-0.365612	0.610085
12.600000	-0.088391	-0.405672	0.294332
12.610000	-0.369814	-0.365612	0.769190
12.620000	-0.249520	-0.687363	0.136701
12.630000	0.112382	-0.003484	0.452454
12.640000	0.233016	0.358963	0.768699
12.650000	0.393635	0.641290	0.452945
12.660000	0.192522	0.640018	0.768534
12.670000	0.032073	0.561170	-0.495952
12.680000	0.112891	0.841907	0.136373
12.690000	0.153216	0.601548	-0.653910
12.700000	0.153046	0.923617	-0.970483
12.710000	0.313156	1.163976	1.716613
12.720000	0.152367	1.243777	0.925510
12.730000	0.152537	1.122962	0.136865
12.740000	-0.088561	0.922027	0.295643
12.750000	-0.048237	0.238465	-0.022240
12.760000	0.193371	0.157392	0.451798
12.770000	0.031563	0.237511	-0.021422
12.780000	0.071548	0.158028	0.136865
12.790000	-0.290014	0.076318	0.452945
12.800000	-0.048406	-0.123981	0.452454
12.810000	-0.168701	-0.486110	0.294168
12.820000	-0.047727	-0.808497	1.559310
12.830000	0.314344	-0.767801	0.137029
12.840000	-0.209025	-0.446050	0.452619
12.850000	-0.129565	-0.445414	-0.179871
12.860000	0.112382	-0.284539	0.452291
12.870000	-0.209025	-0.325553	-0.021913
12.880000	-0.047897	-0.446050	0.453273
12.890000	0.032752	-0.324598	0.136865
12.900000	0.072397	-0.083603	1.242738
12.910000	0.031733	0.560852	0.295315
12.920000	-0.008252	0.399341	0.452618
12.930000	0.072567	0.560534	0.452126
12.940000	0.072567	0.560534	0.452781
12.950000	0.313325	0.480096	-0.337830
12.960000	-0.008252	0.922663	0.610740
12.970000	0.113061	0.922345	0.768535
12.980000	0.313835	1.002782	-0.022077
12.990000	0.312986	1.043796	1.558491
13.000000	-0.008082	1.204671	-0.654894
13.010000	0.112382	0.438764	0.769026
13.020000	-0.169040	0.440036	0.452618
13.030000	-0.048406	0.278525	0.610085
13.040000	0.072567	0.238465	0.768536
13.050000	-0.048576	0.157710	-0.179379
13.060000	0.072058	0.157710	0.135882
13.070000	-0.209704	-0.004120	-0.180199
13.080000	-0.289335	-0.245433	0.926986
13.090000	-0.128546	-0.485792	0.927149
13.100000	0.032243	-0.164041	0.293841
13.110000	0.112722	-0.325871	1.401679
13.120000	-0.128546	-0.082649	0.611232
13.130000	-0.249520	-0.405036	0.609758
13.140000	-0.410478	0.037212	0.294004
13.150000	-0.249520	-0.365612	0.767715
13.160000	0.234035	-0.163405	1.085927
13.170000	0.153386	-0.244479	0.610904
13.180000	0.192692	0.037530	0.451799
13.190000	-0.129056	0.438446	-0.180199
13.200000	-0.048406	0.439400	-0.022077
13.210000	0.072058	0.439082	0.294495
13.220000	0.112212	0.561170	0.926329
13.230000	0.273680	0.358645	-0.180035
13.240000	0.233186	0.680714	-0.021913
13.250000	0.474623	0.802165	-0.180854
13.260000	0.112382	1.122644	-0.338649
13.270000	0.152027	0.881649	0.769681
13.280000	0.071888	0.439718	1.875227
13.290000	0.072058	0.318585	0.611560
13.300000	0.192861	0.358645	-0.812524
13.310000	-0.088901	0.437810	-0.021422
13.320000	0.031224	0.238147	-0.021422
13.330000	0.152027	0.317631	0.769354
13.340000	0.273680	-0.164677	0.294332
13.350000	-0.048576	-0.365294	0.137029
13.360000	0.031394	-0.164359	0.927312
13.370000	0.112382	-0.405990	1.084616
13.380000	-0.048237	-0.487064	0.768208
13.390000	-0.088222	-0.365930	2.033350
13.400000	0.072397	-0.406626	-0.179380
13.410000	0.071888	-0.526488	-0.021913
13.420000	0.032412	-0.405990	-0.179052
13.430000	-0.209535	-0.285175	0.453437
13.440000	0.031733	-0.284857	-0.180035
13.450000	0.071718	-0.043226	1.242246
13.460000	0.232676	0.077590	1.874735
13.470000	0.313495	0.318267	-0.020930
13.480000	-0.129056	0.559898	0.451307
13.490000	-0.169040	0.278525	0.769518
13.500000	-0.088731	0.559580	1.084123
13.510000	0.192861	0.600276	-0.022404
13.520000	0.112382	0.520156	0.768371
13.530000	0.313495	0.801529	0.295315
13.540000	0.192352	0.881649	0.927968
13.550000	-0.129225	0.760515	0.136045
13.560000	-0.209535	0.318903	1.084452
13.570000	0.032243	0.479778	1.401188
13.580000	0.152367	0.358327	0.611068
13.590000	0.072058	0.278207	0.452618
13.600000	-0.008252	0.358009	2.507224
13.610000	0.072058	0.076318	0.769026
13.620000	0.233016	-0.043862	0.294660
13.630000	0.072397	0.076000	1.559638
13.640000	0.192522	-0.124617	1.085435
13.650000	-0.008082	-0.083603	0.927968
13.660000	-0.168871	-0.084876	0.768535
13.670000	-0.088731	-0.124299	0.768372
13.680000	-0.007912	-0.083921	0.769026
13.690000	-0.008591	-0.365294	1.085435
13.700000	0.313495	-0.285175	-0.179052
13.710000	0.031733	-0.042908	1.084616
13.720000	-0.088901	-0.123345	0.768043
13.730000	-0.088901	0.078226	-0.180199
13.740000	-0.008082	0.358009	-0.337994
13.750000	0.072397	0.118604	1.084779
13.760000	-0.048067	0.440036	1.241755
13.770000	0.072397	0.359917	-0.022077
13.780000	0.072058	0.481050	1.717105
13.790000	-0.249859	0.641290	1.084452
13.800000	0.514608	0.761787	0.452454
13.810000	0.112722	0.720455	0.927149
13.820000	0.193031	0.721091	0.768372
13.830000	-0.048406	0.722045	0.610904
13.840000	-0.008591	0.439718	0.610904
13.850000	0.193031	0.438764	0.294004
13.860000	0.232846	0.439718	-0.022404
13.870000	0.193371	0.277889	0.294331
13.880000	-0.209365	0.157392	0.453109
13.890000	-0.289674	0.277889	0.452126
13.900000	-0.330338	-0.043544	1.084943
13.910000	0.112212	0.036894	-0.495788
13.920000	0.193031	-0.164359	0.769846
13.930000	-0.128716	-0.123981	1.084453
13.940000	-0.128716	-0.083921	1.241427
13.950000	-0.088561	-0.164359	-0.021585
13.960000	-0.048237	-0.244797	0.136210
13.970000	0.072737	-0.324280	0.452454
13.980000	0.112891	-0.003484	0.293841
13.990000	-0.088222	0.238147	0.452290
14.000000	-0.209195	0.197769	1.401351
14.010000	-0.168871	0.157392	0.610249
14.020000	-0.048406	0.318267	1.717269
14.030000	0.072567	0.119240	0.294332
14.040000	-0.048576	0.157710	0.452454
14.050000	0.233695	0.399977	-0.180362
14.060000	-0.048237	0.600594	0.136537
14.070000	-0.088561	0.440673	-0.022077
14.080000	-0.088561	0.601230	1.400860
14.090000	0.273171	0.439400	1.084452
14.100000	-0.129056	0.520156	0.610413
14.110000	0.032073	0.519838	0.611887
14.120000	0.031563	0.399341	-0.020930
14.130000	-0.129056	0.520474	1.243066
14.140000	0.032073	0.278843	1.085271
14.150000	0.273341	0.036576	0.451636
14.160000	0.072058	-0.123663	1.084288
14.170000	0.072058	-0.043544	1.084615
14.180000	-0.088561	-0.083285	0.452946
14.190000	-0.008761	-0.245115	0.611395
14.200000	-0.088731	-0.124617	1.558983
14.210000	0.233356	-0.044180	1.558655
14.220000	-0.249689	-0.205055	0.453274
14.230000	-0.289844	-0.084876	1.875064
14.240000	-0.128716	-0.003484	0.767715
14.250000	-0.047727	-0.003166	1.400860
14.260000	-0.128886	0.157074	0.452618
14.270000	-0.169040	-0.043226	0.925675
14.280000	0.112382	0.077590	0.136865
14.290000	0.232846	0.399659	0.451308
14.300000	0.273510	0.439400	1.400861
14.310000	-0.088561	0.319539	-0.179051
14.320000	-0.008252	0.359281	0.610413
14.330000	0.152367	0.318267	0.610740
14.340000	0.031733	0.520156	1.243065
14.350000	-0.128716	0.560534	-0.338649
14.360000	0.152367	0.559898	0.768863
14.370000	0.233016	0.037212	0.926985
14.380000	0.072397	0.398387	0.452290
14.390000	0.071888	0.157074	0.452618
14.400000	0.071888	0.278207	1.559146
14.410000	-0.249180	0.076636	-0.337993
14.420000	0.596785	0.318585	1.718252
14.430000	2.532361	1.246957	3.461202
14.440000	2.168252	1.006598	1.878505
14.450000	2.853599	1.487953	3.774825
14.460000	2.490339	1.731810	3.142992
14.470000	1.764328	2.251951	1.560130
14.480000	1.884623	2.371177	1.244377
14.490000	2.125381	2.330481	0.452946
14.500000	2.044562	1.967080	0.136701
14.510000	1.923759	1.844993	-0.811213
14.520000	2.326834	1.483500	-0.496607
14.530000	1.964932	1.604634	-0.337994
14.540000	2.206539	1.360777	-1.602480
14.550000	2.368007	1.399882	-0.655549
14.560000	2.368177	1.519744	0.135554
14.570000	2.489490	1.277795	-0.339468
14.580000	2.811407	1.277159	0.766076
14.590000	3.013539	1.237417	-0.338812
14.600000	3.214822	1.358868	-0.813016
14.610000	3.375440	1.639605	-0.338485
14.620000	3.779365	1.519744	0.610904
14.630000	3.899998	1.639605	-0.180198
14.640000	4.505375	1.681573	-0.020766
14.650000	8.134580	3.659134	4.727491
14.660000	10.431548	4.503570	4.887089
14.670000	10.994563	5.308901	5.677045
14.680000	10.307179	5.791527	4.884631
14.690000	10.224493	6.314531	6.148953
14.700000	10.304802	7.279466	5.990668
14.710000	10.548277	7.236543	5.990504
14.720000	11.314443	6.387018	3.935569
14.730000	11.799185	5.136895	2.827567
14.740000	12.323744	4.127767	3.141190
14.750000	13.291701	3.762140	2.667642
14.760000	13.936553	3.760868	3.931966
14.770000	13.776784	3.680112	2.667643
14.780000	13.818297	3.478541	2.511650
14.790000	13.940119	3.598721	2.985853
14.800000	14.745251	3.034067	3.933276
14.810000	15.793009	2.951085	3.142010
14.820000	16.839578	3.147886	2.349760
14.830000	17.241634	3.225779	1.558984
14.840000	17.845823	3.944312	1.557346
14.850000	17.644200	3.659759	0.132443
14.860000	18.206875	3.535445	-0.341432
14.870000	18.690598	3.613339	-2.398497
14.880000	19.254463	3.369482	-2.715560
14.890000	19.334263	3.246440	-3.191894
14.900000	19.213629	3.045187	-3.350016
14.910000	18.569286	2.641726	-3.033608
14.920000	18.569286	2.640454	-3.034263
14.930000	18.407989	2.114589	-4.142102
14.940000	18.609102	1.912381	-4.774592
14.950000	18.527433	1.710810	-4.775411
14.960000	18.123170	1.750870	-5.882922
14.970000	17.356835	2.032242	-6.832804
14.980000	16.267564	1.991229	-7.464638
14.990000	15.702851	2.794652	-9.520391
