BioWare Version 5.4.9.0 Export
Device:	ISO Leg Press (NEW) 9281CA (SN<616902)	ISO Leg Press (NEW) 9281CA (SN<616902)	ISO Leg Press (NEW) 9281CA (SN<616902)
Samples (#):	1500	1500	1500
Rate (Hz):	100.000000	100.000000	100.000000
Contact period start (sample #):	0	0	0
Contact period end (sample #):	1109	1109	1109
Contact period start time (s):	0.000000	0.000000	0.000000
Contact period end time (s):	11.090000	11.090000	11.090000
First sample time (s):	0.000000	0.000000	0.000000
Normalized force (N):	800.000000	800.000000	800.000000
Normalized length (m):	1.000000	1.000000	1.000000
File Information
Date	Oct 13, 2024  11:21:23
Name	
ID	
Classification	
Description	
abs time (s)	Fx	Fy	Fz
	N	N	N
0.000000	19.503760	-1.914494	172.596897
0.010000	19.262662	-2.719825	171.491514
0.020000	19.262832	-2.880064	174.179106
0.030000	19.302477	-3.403068	173.388659
0.040000	19.142028	-3.522929	172.915442
0.050000	19.383805	-3.281298	172.125158
0.060000	19.624734	-3.523248	171.808582
0.070000	19.906156	-3.281934	169.912752
0.080000	19.664718	-3.080681	171.018959
0.090000	19.744858	-2.998971	170.859846
0.100000	19.865832	-2.756704	170.227362
0.110000	19.705552	-2.397120	168.647121
0.120000	19.866002	-1.994614	170.702051
0.130000	19.905986	-1.833420	169.121817
0.140000	19.463096	-1.954236	171.018301
0.150000	19.221828	-1.632485	171.175112
0.160000	18.858737	-1.712287	175.757547
0.170000	17.852154	-2.032130	181.761442
0.180000	16.362355	-2.392668	191.715443
0.190000	15.636514	-2.631755	203.248711
0.200000	13.984907	-3.032671	216.363190
0.210000	13.178587	-3.273348	229.950739
0.220000	12.976116	-4.357507	241.799585
0.230000	12.452576	-4.720272	254.124929
0.240000	11.366192	-4.561305	263.764328
0.250000	9.395046	-5.086217	270.085781
0.260000	7.985896	-5.126913	279.409748
0.270000	7.099605	-5.249000	288.261810
0.280000	5.528987	-5.891548	295.847755
0.290000	3.919573	-6.616123	304.381615
0.300000	2.671551	-7.419546	309.756123
0.310000	2.389789	-8.224877	317.342384
0.320000	2.550407	-8.587005	320.502872
0.330000	1.744936	-8.990465	324.770042
0.340000	1.180054	-9.471819	330.301212
0.350000	1.097877	-10.434845	332.986176
0.360000	0.775281	-11.158466	340.572777
0.370000	0.774941	-11.841073	346.418541
0.380000	1.297122	-12.845113	350.367500
0.390000	1.618360	-13.083882	357.319164
0.400000	1.899613	-13.563964	361.267464
0.410000	1.818285	-13.604342	368.535023
0.420000	1.738315	-13.321697	372.642937
0.430000	1.496368	-13.965516	377.066257
0.440000	1.093972	-14.729833	384.019554
0.450000	1.295424	-15.211505	389.390625
0.460000	1.576677	-15.655344	395.393864
0.470000	2.139863	-15.895384	402.976524
0.480000	2.219832	-16.014610	408.662041
0.490000	2.339956	-16.376738	417.984890
0.500000	1.573791	-16.979226	424.937183
0.510000	0.687671	-17.743225	433.311115
0.520000	0.565679	-18.950109	440.420891
0.530000	0.605664	-19.795499	450.219551
0.540000	0.482823	-20.117249	455.116264
0.550000	0.120921	-20.641207	460.647430
0.560000	0.362359	-20.963912	465.863022
0.570000	0.441649	-21.244649	472.024532
0.580000	1.165623	-21.367055	475.182568
0.590000	0.723242	-21.729819	480.239513
0.600000	0.441480	-21.934570	485.612900
0.610000	-0.161690	-21.974630	490.354282
0.620000	-0.806033	-22.257276	495.095654
0.630000	-1.168613	-22.218805	499.361343
0.640000	-1.611673	-22.782824	504.417980
0.650000	-2.054903	-22.904276	509.316177
0.660000	-2.416975	-22.985349	515.795902
0.670000	-2.054903	-23.149086	518.798592
0.680000	-2.054225	-23.150994	523.380875
0.690000	-2.779555	-22.910954	529.069981
0.700000	-3.060809	-22.951331	535.391277
0.710000	-3.141797	-22.952603	539.499996
0.720000	-3.584518	-22.913815	545.032322
0.730000	-4.027748	-23.357018	551.986744
0.740000	-5.154797	-23.558589	558.625252
0.750000	-6.724226	-23.319183	563.684517
0.760000	-7.770965	-23.281350	569.059509
0.770000	-8.496467	-23.361153	576.169945
0.780000	-9.221967	-23.561133	582.177933
0.790000	-9.665197	-24.002745	589.763695
0.800000	-10.873406	-24.486961	597.509399
0.810000	-12.603113	-25.008694	603.991280
0.820000	-13.731011	-25.974263	610.156075
0.830000	-14.897704	-26.457208	615.688866
0.840000	-16.065587	-27.461566	622.170418
0.850000	-16.186731	-27.985523	627.386986
0.860000	-15.985109	-28.144810	630.233841
0.870000	-16.024754	-28.386758	633.395966
0.880000	-15.582033	-29.030259	634.346336
0.890000	-16.466965	-29.514475	637.034088
0.900000	-18.196333	-29.634974	639.883240
0.910000	-18.638545	-29.836545	639.252876
0.920000	-17.873399	-29.556762	637.043419
0.930000	-16.664682	-29.477279	632.304810
0.940000	-16.301422	-29.437536	626.460350
0.950000	-16.823943	-29.439444	621.723251
0.960000	-18.189712	-29.078270	616.826202
0.970000	-18.672417	-28.757154	611.614082
0.980000	-18.188354	-28.194092	608.454575
0.990000	-16.779544	-27.752161	607.033432
1.000000	-13.881442	-26.707425	601.815720
1.010000	-11.264255	-25.661418	597.074837
1.020000	-10.458104	-24.978174	590.438141
1.030000	-10.216157	-24.294613	587.118706
1.040000	-9.975060	-23.611052	580.166092
1.050000	-10.819158	-23.047352	574.163345
1.060000	-11.100410	-22.806039	571.317795
1.070000	-9.892712	-22.964688	570.212898
1.080000	-9.731585	-23.567812	569.106705
1.090000	-10.052992	-23.848549	569.264503
1.100000	-9.730905	-24.050756	568.790459
1.110000	-8.764306	-24.051392	569.106544
1.120000	-7.878695	-23.087412	566.893814
1.130000	-7.032899	-22.524667	564.839035
1.140000	-8.159948	-22.363791	564.050545
1.150000	-9.607894	-22.281445	562.312866
1.160000	-10.049935	-22.644527	563.261765
1.170000	-9.848313	-22.243611	562.788361
1.180000	-8.440351	-22.364745	562.156197
1.190000	-8.198235	-22.004207	560.576294
1.200000	-8.842238	-22.127565	559.786171
1.210000	-9.606535	-22.411165	559.470909
1.220000	-9.565363	-22.372059	556.468559
1.230000	-9.525378	-22.455041	555.520157
1.240000	-8.921529	-22.054443	554.256317
1.250000	-9.283600	-21.090463	551.571182
1.260000	-10.007404	-20.326464	550.465302
1.270000	-10.571438	-20.045091	550.149391
1.280000	-10.732057	-19.883898	547.620415
1.290000	-10.128377	-20.123621	546.198967
1.300000	-9.082657	-20.645988	543.829254
1.310000	-7.915794	-20.725789	541.300278
1.320000	-8.478809	-20.766804	538.613831
1.330000	-9.202951	-20.766486	536.876953
1.340000	-9.444389	-20.646306	535.138588
1.350000	-9.484373	-20.526444	534.507584
1.360000	-9.121623	-20.807817	534.506760
1.370000	-8.960495	-20.084515	534.823982
1.380000	-9.201254	-20.086104	535.454826
1.390000	-9.362382	-20.006304	535.929520
1.400000	-9.321887	-19.644174	535.455643
1.410000	-9.281394	-19.324332	531.980240
1.420000	-9.401178	-19.366619	532.137878
1.430000	-9.683280	-19.245803	530.242699
1.440000	-10.166325	-19.406996	530.559441
1.450000	-10.447578	-19.367254	531.508499
1.460000	-10.286789	-19.407314	533.403984
1.470000	-10.166155	-19.047093	534.036980
1.480000	-10.206479	-19.127850	533.878693
1.490000	-10.165646	-19.410176	533.088737
1.500000	-10.366250	-19.812683	532.615677
1.510000	-10.366419	-20.175766	530.086868
1.520000	-10.406064	-20.096282	530.246292
1.530000	-10.969589	-20.178310	528.034538
1.540000	-11.049049	-20.259383	527.401070
1.550000	-10.929095	-20.100416	527.400085
1.560000	-10.285431	-19.858785	528.348167
1.570000	-9.842201	-19.698864	528.822372
1.580000	-9.359835	-19.497611	528.345879
1.590000	-9.319510	-19.255661	528.821716
1.600000	-9.199046	-18.572101	527.398132
1.610000	-9.360175	-18.409953	526.450539
1.620000	-9.521133	-18.610888	524.079529
1.630000	-9.481487	-18.450331	523.921570
1.640000	-9.119756	-18.208064	523.132103
1.650000	-9.280714	-17.524184	523.447205
1.660000	-9.562646	-18.006175	523.763779
1.670000	-9.562306	-18.609298	524.711853
1.680000	-9.642786	-18.086930	524.553574
1.690000	-9.401518	-18.330152	525.343025
1.700000	-9.441332	-18.571783	525.975021
1.710000	-9.401518	-18.409635	526.606209
1.720000	-9.160080	-18.490391	527.397476
1.730000	-9.199896	-18.126354	525.343529
1.740000	-9.763759	-18.085976	523.763283
1.750000	-10.568042	-17.884723	524.394142
1.760000	-11.373513	-18.003948	529.450760
1.770000	-12.058180	-18.366076	535.926262
1.780000	-12.421780	-18.647131	546.195686
1.790000	-12.462613	-19.332283	559.469261
1.800000	-13.268424	-20.337913	568.790283
1.810000	-13.913786	-21.180123	577.640388
1.820000	-14.035439	-21.542252	580.645699
1.830000	-13.512069	-21.783882	580.332558
1.840000	-12.465840	-22.226130	575.435532
1.850000	-12.827402	-21.300939	570.066254
1.860000	-13.994095	-21.060262	567.856636
1.870000	-15.563186	-20.939128	567.226761
1.880000	-16.811207	-21.661159	572.758247
1.890000	-17.214623	-21.581039	578.448036
1.900000	-16.852211	-22.144738	585.085907
1.910000	-15.805642	-22.346310	589.984245
1.920000	-14.558299	-22.667425	594.251923
1.930000	-15.443231	-22.388914	600.414093
1.940000	-16.649909	-22.913508	603.417107
1.950000	-18.662399	-22.555514	611.793152
1.960000	-20.875834	-23.158320	621.276894
1.970000	-22.324967	-23.679733	630.444382
1.980000	-23.894738	-23.920093	641.192101
1.990000	-25.504490	-24.240889	653.363091
2.000000	-27.437011	-24.720971	666.640617
2.010000	-29.933563	-25.283081	682.288513
2.020000	-32.832003	-26.283940	697.147240
2.030000	-35.811091	-27.327086	712.480339
2.040000	-38.629222	-29.493814	730.659332
2.050000	-41.367213	-31.781042	751.050728
2.060000	-44.748868	-34.067314	773.815750
2.070000	-49.660306	-36.555794	796.898987
2.080000	-55.657957	-38.402998	820.615021
2.090000	-62.620176	-41.776293	846.705856
2.100000	-69.140179	-44.825293	873.745087
2.110000	-75.500072	-47.269577	899.045959
2.120000	-81.135485	-49.271297	925.136826
2.130000	-85.523045	-51.792524	951.701355
2.140000	-90.191349	-54.598299	979.371918
2.150000	-96.589699	-57.324274	1009.575409
2.160000	-103.188145	-58.324183	1036.461105
2.170000	-109.828102	-57.075645	1061.134583
2.180000	-117.069874	-55.385502	1082.808304
2.190000	-122.460114	-54.215498	1096.418945
2.200000	-126.805820	-53.083328	1106.080276
2.210000	-130.910091	-52.069749	1115.263031
2.220000	-135.738506	-52.308517	1123.972504
2.230000	-142.741554	-53.585979	1133.945206
2.240000	-147.208576	-55.628712	1145.337875
2.250000	-151.393665	-56.267126	1156.572098
2.260000	-155.818993	-55.983525	1170.331680
2.270000	-158.876022	-56.060148	1181.879333
2.280000	-162.418289	-56.818425	1194.373993
2.290000	-165.678116	-57.094070	1204.021210
2.300000	-168.856117	-57.694014	1215.880402
2.310000	-171.549706	-58.658633	1223.945923
2.320000	-173.923073	-60.105236	1232.800964
2.330000	-174.444237	-60.909615	1239.282944
2.340000	-173.800751	-62.074848	1244.815750
2.350000	-173.679779	-62.475445	1244.501373
2.360000	-175.248360	-62.918330	1243.871155
2.370000	-176.895210	-63.245486	1241.343475
2.380000	-179.148285	-64.170999	1243.871506
2.390000	-179.349228	-65.132751	1248.134705
2.400000	-177.901794	-67.617734	1256.980911
2.410000	-175.005394	-68.575354	1261.242325
2.420000	-172.752487	-68.290483	1267.085480
2.430000	-170.096832	-67.446362	1267.393875
2.440000	-166.716881	-67.246383	1271.021530
2.450000	-165.348396	-67.610735	1273.387268
2.460000	-164.904480	-67.734731	1273.700745
2.470000	-164.823837	-68.260918	1275.911011
2.480000	-166.111679	-68.986444	1276.856995
2.490000	-167.279381	-68.304157	1280.651245
2.500000	-167.239746	-67.017791	1286.495041
2.510000	-165.631516	-65.972416	1291.233612
2.520000	-165.190666	-65.569913	1298.026489
2.530000	-162.937416	-65.891661	1303.237961
2.540000	-163.622253	-67.860952	1312.402206
2.550000	-165.592888	-66.339634	1317.457520
2.560000	-162.051804	-65.536530	1324.723099
2.570000	-162.697166	-64.895574	1330.254929
2.580000	-163.380814	-63.689962	1335.469711
2.590000	-162.656334	-62.727254	1338.945297
2.600000	-164.466858	-63.091610	1341.003342
2.610000	-167.846985	-64.215509	1347.327591
2.620000	-167.765831	-65.864642	1348.119156
2.630000	-168.047249	-67.350036	1348.121597
2.640000	-168.488617	-68.434830	1345.278351
2.650000	-167.764809	-69.437281	1344.016144
2.660000	-167.925262	-69.841377	1344.963440
2.670000	-168.368149	-69.919907	1349.229797
2.680000	-168.167709	-69.477978	1352.861343
2.690000	-168.247345	-69.640760	1360.131393
2.700000	-168.005226	-69.760622	1364.714645
2.710000	-166.275352	-69.879845	1362.028336
2.720000	-167.079460	-69.920544	1362.346054
2.730000	-169.010963	-71.086727	1362.505661
2.740000	-170.540573	-71.769974	1364.558792
2.750000	-171.182716	-71.692715	1368.036026
2.760000	-171.061401	-71.131878	1369.932175
2.770000	-169.128540	-70.209229	1368.191513
2.780000	-167.118088	-69.604836	1367.399429
2.790000	-165.749092	-69.002665	1364.077713
2.800000	-165.065620	-68.963240	1363.601547
2.810000	-164.985817	-69.163221	1365.653046
2.820000	-164.502769	-69.844875	1368.336212
2.830000	-164.100372	-69.724379	1370.546295
2.840000	-163.939415	-68.839878	1369.281494
2.850000	-165.106789	-68.357891	1369.913025
2.860000	-166.072029	-68.518448	1374.182159
2.870000	-165.991547	-69.362885	1378.449005
2.880000	-166.233498	-69.724379	1382.713531
2.890000	-165.629822	-70.769114	1385.873535
2.900000	-164.221519	-70.449589	1384.610199
2.910000	-164.906013	-70.207321	1381.291931
2.920000	-165.509354	-69.685591	1377.974152
2.930000	-165.991547	-69.889704	1380.502808
2.940000	-166.273994	-71.295296	1384.925781
2.950000	-166.475273	-71.254284	1390.298004
2.960000	-166.797363	-71.734049	1394.880432
2.970000	-166.234169	-71.370647	1394.407043
2.980000	-165.550018	-70.444183	1392.354889
2.990000	-166.315338	-69.317417	1390.774658
3.000000	-167.563187	-69.035408	1394.411285
3.010000	-168.447777	-69.998753	1394.254974
3.020000	-168.326630	-70.601877	1391.883972
3.030000	-167.923897	-71.645657	1390.147430
3.040000	-167.158920	-71.402119	1386.986938
3.050000	-167.078613	-71.039675	1387.624023
3.060000	-168.729202	-71.237110	1382.569519
3.070000	-170.218491	-71.555679	1382.412018
3.080000	-170.781166	-72.357197	1386.046906
3.090000	-169.573807	-72.718051	1387.152618
3.100000	-168.969612	-72.236063	1386.995331
3.110000	-170.175964	-70.910270	1388.103607
3.120000	-171.021759	-69.141915	1386.842102
3.130000	-172.270111	-68.417656	1388.263885
3.140000	-171.505989	-68.417021	1387.313995
3.150000	-171.304703	-69.983490	1388.576996
3.160000	-171.385010	-71.791271	1391.105194
3.170000	-171.747429	-73.437537	1393.001831
3.180000	-172.390915	-73.276026	1394.900116
3.190000	-173.557617	-72.031312	1396.798889
3.200000	-174.121140	-71.267310	1396.010071
3.210000	-173.718063	-71.024728	1395.695313
3.220000	-173.154366	-72.028130	1397.592621
3.230000	-173.234673	-73.070639	1399.803741
3.240000	-173.959839	-73.469328	1402.332489
3.250000	-175.086205	-73.589510	1404.701874
3.260000	-173.839714	-72.504713	1406.913940
3.270000	-173.477814	-71.781730	1405.964386
3.280000	-172.028854	-71.582067	1403.278442
3.290000	-172.109497	-71.984254	1401.223511
3.300000	-171.586304	-72.465926	1398.850861
3.310000	-171.103760	-72.705967	1398.849854
3.320000	-170.581070	-72.703105	1399.006348
3.330000	-169.254097	-71.576978	1396.317444
3.340000	-168.248535	-70.896595	1394.892731
3.350000	-167.604530	-70.981168	1389.675507
3.360000	-166.196739	-71.628804	1386.827362
3.370000	-164.547165	-71.516573	1383.977020
3.380000	-163.582100	-71.119474	1385.078308
3.390000	-163.341507	-69.918316	1385.548737
3.400000	-162.577888	-68.878035	1385.227264
3.410000	-161.653648	-68.397633	1387.437897
3.420000	-160.728737	-69.120300	1386.645660
3.430000	-159.762817	-69.683044	1385.220581
3.440000	-159.399727	-70.769749	1383.798126
3.450000	-160.526947	-71.170666	1383.643097
3.460000	-161.290733	-70.609192	1383.800751
3.470000	-160.848854	-69.805449	1383.957397
3.480000	-160.808876	-69.082146	1381.903259
3.490000	-160.527451	-69.522488	1382.376831
3.500000	-160.043900	-69.721832	1383.326050
3.510000	-159.721474	-70.003204	1381.904266
3.520000	-159.760605	-69.562546	1380.009247
3.530000	-160.122169	-68.799185	1378.274658
3.540000	-160.765152	-69.160040	1377.803070
3.550000	-161.409157	-69.281174	1377.803528
3.560000	-161.127571	-70.243881	1380.331512
3.570000	-160.885620	-71.286074	1382.069885
3.580000	-160.201797	-71.364923	1381.121796
3.590000	-159.999672	-70.843510	1382.071350
3.600000	-160.925606	-70.279810	1387.765106
3.610000	-161.206856	-70.800905	1387.450806
3.620000	-161.890335	-71.160807	1385.399139
3.630000	-162.251556	-71.638981	1382.557739
3.640000	-161.808327	-72.119062	1376.396362
3.650000	-160.963379	-72.236379	1373.712860
3.660000	-161.446594	-71.227888	1367.552322
3.670000	-162.370834	-69.659831	1363.919937
3.680000	-162.652603	-68.573763	1365.660904
3.690000	-163.456200	-68.131198	1366.452499
3.700000	-162.529419	-68.410341	1367.245895
3.710000	-162.286613	-68.408118	1365.827042
3.720000	-162.528229	-68.203367	1365.040390
3.730000	-163.695259	-68.200185	1363.622040
3.740000	-164.621536	-68.640208	1361.411285
3.750000	-165.948174	-69.405161	1360.464172
3.760000	-165.022232	-70.168842	1357.778046
3.770000	-163.292191	-71.012959	1355.720520
3.780000	-161.520966	-70.691208	1350.978943
3.790000	-160.716171	-68.885017	1347.660339
3.800000	-161.723602	-68.039945	1347.345245
3.810000	-162.730354	-68.161398	1347.345596
3.820000	-163.213058	-68.765475	1348.453110
3.830000	-163.855713	-70.052477	1349.560776
3.840000	-163.775230	-70.856537	1350.034164
3.850000	-162.809990	-70.413015	1347.346085
3.860000	-162.086693	-69.527249	1343.394852
3.870000	-162.451141	-67.556046	1342.760391
3.880000	-161.887619	-66.752626	1343.074158
3.890000	-161.041992	-66.434689	1344.651093
3.900000	-160.155533	-66.397173	1345.598358
3.910000	-160.919830	-66.678866	1344.178223
3.920000	-161.765457	-66.838467	1341.967133
3.930000	-162.652260	-66.714791	1341.650711
3.940000	-162.854385	-66.875982	1345.919876
3.950000	-162.733078	-67.240338	1347.341019
3.960000	-161.846275	-68.487283	1348.130142
3.970000	-161.201080	-69.371142	1347.023941
3.980000	-161.242424	-70.493456	1346.076675
3.990000	-161.524017	-70.371682	1345.131393
4.000000	-161.403557	-69.566352	1340.706406
4.010000	-161.645164	-69.805441	1339.602173
4.020000	-162.691223	-70.771328	1338.972961
4.030000	-163.373856	-71.575706	1342.135559
4.040000	-163.452972	-71.896183	1344.506439
4.050000	-163.774208	-71.449485	1344.351746
4.060000	-162.890129	-70.036260	1340.718231
4.070000	-162.569572	-68.582022	1340.879639
4.080000	-162.770851	-68.134048	1343.410583
4.090000	-164.138832	-67.888283	1347.047348
4.100000	-166.673164	-68.647511	1352.109085
4.110000	-168.200394	-69.727220	1357.485718
4.120000	-167.918640	-69.642647	1358.912735
4.130000	-167.998604	-68.951770	1358.286209
4.140000	-168.119743	-68.782308	1357.500320
4.150000	-168.965546	-69.378438	1358.136917
4.160000	-170.533447	-69.857248	1360.194962
4.170000	-171.820778	-70.738881	1362.565292
4.180000	-172.061867	-71.299078	1367.783035
4.190000	-171.498512	-71.179539	1370.154556
4.200000	-171.459206	-70.133845	1374.261932
4.210000	-171.621193	-69.131717	1379.632202
4.220000	-171.501068	-69.212789	1388.637955
4.230000	-171.219467	-69.297043	1395.117874
4.240000	-171.460068	-69.619749	1398.122482
4.250000	-172.667076	-70.585320	1400.179245
4.260000	-174.116379	-71.587770	1401.445847
4.270000	-175.203278	-71.665660	1405.875259
4.280000	-176.813881	-71.904430	1409.353928
4.290000	-177.859428	-72.387061	1414.573135
4.300000	-178.179649	-73.271552	1415.525436
4.310000	-178.379913	-74.193887	1416.002960
4.320000	-179.504578	-75.037368	1415.849243
4.330000	-181.356285	-75.073925	1417.907104
4.340000	-182.120415	-75.268819	1420.278809
4.350000	-182.684448	-74.903831	1422.178223
4.360000	-182.522812	-74.740093	1420.441986
4.370000	-183.045502	-74.737227	1420.130798
4.380000	-183.406380	-74.737227	1418.869141
4.390000	-184.773682	-75.379459	1420.926208
4.400000	-186.906120	-74.896512	1423.456665
4.410000	-187.510139	-74.734053	1424.564484
4.420000	-187.590965	-74.693675	1423.619858
4.430000	-187.108261	-74.974409	1419.513412
4.440000	-186.665535	-75.296161	1420.935379
4.450000	-186.342438	-75.896104	1425.360031
4.460000	-186.543541	-76.176207	1427.887833
4.470000	-187.469139	-75.933616	1429.153458
4.480000	-188.312561	-75.652566	1430.262466
4.490000	-188.473686	-75.532388	1430.423203
4.500000	-188.433189	-75.495824	1428.844925
4.510000	-189.077362	-76.260460	1431.371292
4.520000	-189.117355	-76.345030	1436.110840
4.530000	-189.882156	-76.227710	1439.901367
4.540000	-190.526161	-75.788006	1444.799866
4.550000	-189.278984	-75.748584	1444.958801
4.560000	-189.117180	-75.870673	1443.537689
4.570000	-188.353058	-75.829655	1443.697296
4.580000	-189.237984	-75.587712	1447.017670
4.590000	-190.808090	-76.229620	1449.389008
4.600000	-192.015114	-77.113796	1452.708130
4.610000	-191.049530	-77.073418	1453.973572
4.620000	-189.920952	-76.552643	1454.764221
4.630000	-189.236282	-76.911275	1450.974182
4.640000	-190.202034	-76.426425	1447.026688
4.650000	-191.891594	-75.859856	1447.502029
4.660000	-192.736877	-74.892066	1451.770844
4.670000	-191.126442	-74.609737	1453.192963
4.680000	-191.890739	-74.849462	1454.301788
4.690000	-191.326370	-75.972723	1451.617966
4.700000	-191.003944	-75.810895	1448.302505
4.710000	-192.332443	-75.849047	1447.042252
4.720000	-193.861717	-75.928215	1444.988785
4.730000	-194.626015	-75.607735	1444.991074
4.740000	-194.424561	-75.206815	1444.201920
4.750000	-193.658401	-75.648745	1442.779160
4.760000	-191.404984	-76.655332	1441.986603
4.770000	-191.928009	-76.895373	1439.932495
4.780000	-192.450699	-76.613999	1438.670288
4.790000	-192.450531	-76.332942	1435.984009
4.800000	-192.411568	-75.850634	1435.984344
4.810000	-191.485634	-75.370237	1434.404602
4.820000	-190.760468	-76.012469	1431.560226
4.830000	-190.478371	-76.134874	1429.191330
4.840000	-191.604401	-76.254097	1423.664078
4.850000	-193.537079	-76.173025	1420.663208
4.860000	-194.060623	-74.927352	1420.033173
4.870000	-194.100609	-74.163039	1420.351715
4.880000	-194.101463	-73.520491	1416.086823
4.890000	-193.899666	-72.836926	1413.559479
4.900000	-194.421852	-72.835970	1408.976532
4.910000	-193.738373	-72.595614	1404.553879
4.920000	-193.618248	-72.753943	1400.760757
4.930000	-192.974243	-72.432192	1401.074692
4.940000	-193.255325	-72.595298	1402.972000
4.950000	-193.577072	-73.037228	1402.971695
4.960000	-193.374428	-73.079509	1402.814224
4.970000	-193.777161	-72.958699	1403.763260
4.980000	-193.938293	-72.434742	1404.712997
4.990000	-193.415604	-71.630043	1403.920731
5.000000	-193.778008	-71.187482	1404.553375
5.010000	-194.744949	-72.071018	1404.082809
5.020000	-195.589897	-72.835339	1401.870407
5.030000	-194.824921	-74.041266	1401.871536
5.040000	-195.588539	-74.404034	1403.454407
5.050000	-196.272865	-73.640353	1403.929092
5.060000	-197.117989	-72.673188	1405.352188
5.070000	-196.757103	-72.268777	1406.299606
5.080000	-197.079872	-71.624319	1407.248367
5.090000	-197.120369	-71.663742	1409.775375
5.100000	-197.683205	-72.869992	1411.196182
5.110000	-197.481758	-73.915047	1413.723816
5.120000	-198.004616	-73.915047	1414.513611
5.130000	-199.052544	-73.589474	1418.623016
5.140000	-199.254341	-72.661107	1420.677765
5.150000	-199.980179	-71.732093	1424.312271
5.160000	-200.825630	-70.524895	1427.946976
5.170000	-200.663994	-69.762485	1426.997589
5.180000	-201.468277	-68.798825	1423.836121
5.190000	-202.434372	-68.274545	1420.515686
5.200000	-201.873055	-67.950251	1417.825684
5.210000	-200.385117	-67.384329	1414.974060
5.220000	-198.817223	-67.621827	1415.443008
5.230000	-196.483833	-67.016475	1421.442200
5.240000	-193.988297	-66.574230	1423.807953
5.250000	-193.384956	-65.607064	1426.176163
5.260000	-194.391029	-65.085018	1427.599411
5.270000	-195.116875	-65.082476	1427.760330
5.280000	-195.720039	-65.886528	1425.389481
5.290000	-195.196678	-66.929679	1421.439056
5.300000	-195.074844	-67.813539	1418.595001
5.310000	-195.316795	-68.456403	1419.699677
5.320000	-195.196159	-68.095544	1421.121796
5.330000	-195.035210	-67.089280	1422.861023
5.340000	-194.834435	-66.286176	1425.548431
5.350000	-194.149933	-65.963153	1424.442566
5.360000	-193.384956	-66.728106	1422.073822
5.370000	-194.472183	-67.928948	1422.076950
5.380000	-195.235641	-68.894196	1422.077133
5.390000	-195.517570	-69.699210	1423.816299
5.400000	-195.397270	-69.297974	1423.657181
5.410000	-194.793427	-68.854141	1424.922348
5.420000	-194.431015	-69.057302	1423.186600
5.430000	-194.672112	-70.100446	1419.712158
5.440000	-195.437431	-70.943296	1417.818268
5.450000	-195.678192	-71.545782	1419.716736
5.460000	-195.757820	-71.788681	1422.562286
5.470000	-194.711754	-71.709836	1421.929626
5.480000	-193.987442	-70.584025	1417.032913
5.490000	-194.592484	-70.020961	1413.243088
5.500000	-194.712944	-69.979952	1407.868546
5.510000	-194.471336	-70.103304	1408.026199
5.520000	-193.908325	-70.264184	1408.500076
5.530000	-193.505760	-69.822886	1409.764542
5.540000	-192.499855	-69.421658	1407.078110
5.550000	-192.299080	-69.903010	1404.076721
5.560000	-192.741463	-69.502413	1401.233002
5.570000	-193.063210	-69.823841	1400.603607
5.580000	-192.981880	-69.463623	1399.813141
5.590000	-192.900215	-69.263960	1397.918304
5.600000	-192.980179	-69.706529	1398.236191
5.610000	-192.779747	-70.389454	1397.604843
5.620000	-192.417000	-70.711522	1399.344040
5.630000	-191.571541	-71.275217	1401.080795
5.640000	-191.369583	-71.757525	1400.290634
5.650000	-190.927544	-72.036995	1398.552444
5.660000	-189.881310	-71.835106	1397.446579
5.670000	-189.961617	-71.232936	1396.973038
5.680000	-190.323692	-70.792278	1395.551559
5.690000	-190.082253	-71.033274	1393.496964
5.700000	-190.202202	-70.873665	1390.177567
5.710000	-190.042099	-69.989490	1390.178848
5.720000	-190.243217	-69.025190	1389.232407
5.730000	-190.323524	-67.982362	1388.441788
5.740000	-191.490379	-68.023695	1390.496582
5.750000	-192.496460	-68.544794	1392.869568
5.760000	-192.695702	-69.428013	1393.817154
5.770000	-191.932594	-70.350348	1393.025558
5.780000	-191.369240	-70.831384	1394.133072
5.790000	-191.892609	-70.027641	1392.237732
5.800000	-192.898178	-69.868672	1391.607697
5.810000	-194.868477	-69.830205	1392.240845
5.820000	-195.994843	-69.872809	1391.925568
5.830000	-195.511459	-70.313468	1393.033264
5.840000	-194.144157	-71.196688	1388.607788
5.850000	-193.944405	-71.675498	1386.553314
5.860000	-194.548424	-71.555635	1388.450470
5.870000	-195.393196	-71.115932	1390.505264
5.880000	-196.438408	-71.279986	1393.665070
5.890000	-197.403145	-71.240248	1398.564575
5.900000	-196.639359	-71.723195	1401.726532
5.910000	-195.914703	-71.479657	1402.518127
5.920000	-195.835579	-71.518124	1402.518097
5.930000	-196.641052	-71.597924	1404.099335
5.940000	-197.164421	-71.151857	1402.045380
5.950000	-196.801498	-71.193830	1401.097992
5.960000	-196.598862	-70.992256	1399.833649
5.970000	-196.880791	-69.787285	1397.938141
5.980000	-196.035164	-68.660203	1396.042145
5.990000	-196.438919	-68.013202	1396.992706
6.000000	-196.760674	-68.412211	1396.993011
6.010000	-197.041756	-69.738956	1395.413605
6.020000	-197.281998	-71.068875	1393.041946
6.030000	-197.361122	-72.236335	1389.250443
6.040000	-197.642883	-72.318362	1388.459488
6.050000	-197.603073	-71.634488	1386.721268
6.060000	-197.201859	-69.622907	1382.295853
6.070000	-196.358276	-68.133696	1380.085739
6.080000	-196.438240	-68.696759	1378.664276
6.090000	-196.115479	-69.301156	1375.346954
6.100000	-195.349480	-69.544062	1370.608856
6.110000	-196.675941	-69.225492	1364.921188
6.120000	-197.038185	-68.504092	1357.810471
6.130000	-197.361626	-67.136338	1352.436920
6.140000	-198.005463	-66.494421	1350.066559
6.150000	-197.843658	-67.661566	1351.329742
6.160000	-196.595131	-68.385509	1352.908188
6.170000	-194.824074	-68.985452	1354.960983
6.180000	-194.059608	-69.868356	1352.273727
6.190000	-193.456436	-69.463938	1351.167862
6.200000	-194.222595	-68.498368	1348.797836
6.210000	-193.859680	-67.977593	1347.690292
6.220000	-194.181427	-68.219221	1345.637848
6.230000	-194.864906	-68.745088	1344.373322
6.240000	-194.783241	-69.429608	1342.319855
6.250000	-193.696175	-69.028688	1338.998993
6.260000	-192.891556	-68.466264	1334.892105
6.270000	-193.577408	-67.136338	1331.257736
6.280000	-193.337166	-66.613328	1330.622772
6.290000	-193.338181	-66.327186	1335.520142
6.300000	-193.017448	-67.006614	1339.152023
6.310000	-192.372429	-66.207008	1342.627426
6.320000	-191.848381	-65.849331	1340.890060
6.330000	-191.967995	-65.930087	1335.044312
6.340000	-192.452057	-66.170451	1331.568207
6.350000	-193.740234	-66.369791	1332.518738
6.360000	-194.304268	-66.771982	1335.048553
6.370000	-194.142967	-67.293712	1335.994171
6.380000	-193.699570	-67.895250	1335.836212
6.390000	-193.377655	-68.177571	1334.572388
6.400000	-193.175354	-68.701852	1333.626251
6.410000	-194.260887	-68.344491	1330.309128
6.420000	-196.553276	-67.344906	1333.628235
6.430000	-198.485107	-66.302394	1338.527405
6.440000	-198.969177	-66.023562	1341.844223
6.450000	-199.090149	-65.864601	1348.324448
6.460000	-197.360954	-65.424898	1349.115860
6.470000	-195.631584	-65.342864	1346.586380
6.480000	-195.429619	-65.584183	1341.689850
6.490000	-196.435524	-65.262747	1335.688065
6.500000	-198.567459	-64.982961	1334.109818
6.510000	-200.298691	-64.178909	1333.477463
6.520000	-201.546043	-64.418950	1336.163437
6.530000	-200.298363	-65.099010	1338.847412
6.540000	-199.534401	-66.020704	1342.323669
6.550000	-197.563591	-67.866952	1345.482513
6.560000	-196.276436	-69.032186	1347.536438
6.570000	-197.281151	-68.351803	1347.222015
6.580000	-198.770271	-68.150553	1349.278107
6.590000	-200.419838	-67.348404	1350.070038
6.600000	-201.546043	-67.229174	1352.441681
6.610000	-202.109222	-67.269552	1352.916687
6.620000	-201.786797	-67.712760	1355.760468
6.630000	-201.586365	-67.952161	1360.186203
6.640000	-201.224289	-67.749317	1365.401321
6.650000	-201.748169	-67.346494	1370.933487
6.660000	-202.312378	-67.626596	1373.619263
6.670000	-202.312546	-67.905104	1376.467072
6.680000	-202.271202	-66.540208	1371.412582
6.690000	-204.604248	-66.298257	1368.097092
6.700000	-205.731300	-66.818084	1366.202881
6.710000	-206.776848	-66.977369	1363.835999
6.720000	-209.029755	-67.138241	1367.157043
6.730000	-209.432999	-67.018702	1371.583664
6.740000	-208.466400	-67.584308	1378.220840
6.750000	-207.018288	-67.824664	1382.330368
6.760000	-206.615715	-67.543298	1381.857162
6.770000	-207.139603	-67.583992	1380.278397
6.780000	-207.059631	-67.383374	1376.803619
6.790000	-207.902878	-67.466988	1373.327576
6.800000	-208.425400	-67.345854	1371.432404
6.810000	-207.943031	-67.467627	1372.695099
6.820000	-207.540970	-67.106453	1375.698944
6.830000	-208.386436	-66.824124	1381.388535
6.840000	-207.904068	-66.700132	1386.285721
6.850000	-205.208267	-66.818400	1391.973083
6.860000	-202.794571	-66.617150	1392.604736
6.870000	-202.834213	-66.416532	1391.498688
6.880000	-203.638840	-65.612789	1390.077209
6.890000	-206.214348	-65.492294	1388.815186
6.900000	-207.782921	-65.814678	1386.762070
6.910000	-206.897652	-66.298580	1388.815872
6.920000	-206.333618	-67.102000	1391.028763
6.930000	-204.401436	-67.703531	1388.973984
6.940000	-204.482597	-67.821806	1390.712357
6.950000	-206.051857	-67.700356	1393.400772
6.960000	-206.655869	-67.981091	1396.245804
6.970000	-205.851425	-68.782608	1393.084824
6.980000	-205.447159	-69.264915	1391.978806
6.990000	-205.286537	-69.706529	1389.292862
7.000000	-205.407173	-70.269908	1388.345261
7.010000	-206.976601	-69.989490	1393.878891
7.020000	-208.024017	-69.226124	1397.830490
7.030000	-206.736015	-68.262780	1401.465805
7.040000	-205.649803	-68.984813	1400.992081
7.050000	-205.930717	-69.306564	1399.096725
7.060000	-206.051346	-70.309647	1399.257385
7.070000	-208.265289	-70.950923	1401.312576
7.080000	-209.673592	-71.071101	1401.628525
7.090000	-209.553299	-69.745628	1405.264511
7.100000	-209.592941	-69.342489	1406.213577
7.110000	-208.224625	-69.782832	1407.478378
7.120000	-207.297501	-70.263228	1406.215881
7.130000	-207.780205	-71.145501	1406.214859
7.140000	-208.224121	-72.229339	1406.058853
7.150000	-207.459648	-72.145401	1403.056396
7.160000	-207.299194	-71.099399	1399.737610
7.170000	-207.137566	-70.136687	1397.369537
7.180000	-206.653671	-70.459394	1393.736328
7.190000	-208.100594	-70.901639	1392.000107
7.200000	-208.221054	-71.342621	1391.842972
7.210000	-206.812080	-71.022141	1388.681992
7.220000	-206.290749	-70.376095	1384.890030
7.230000	-205.487488	-69.610188	1379.042404
7.240000	-203.917885	-68.524755	1373.036392
7.250000	-203.797081	-67.679362	1363.872681
7.260000	-205.405815	-68.162949	1358.816879
7.270000	-205.566261	-69.167302	1351.073776
7.280000	-205.525261	-69.489693	1349.177261
7.290000	-203.955658	-69.049983	1347.593918
7.300000	-202.668159	-67.604970	1347.907883
7.310000	-201.420990	-65.959017	1347.747162
7.320000	-200.977928	-65.596255	1345.218353
7.330000	-201.018425	-65.995265	1342.057724
7.340000	-201.421326	-66.476301	1341.265976
7.350000	-201.743927	-68.042131	1343.794571
7.360000	-200.497604	-68.884341	1344.108871
7.370000	-199.370384	-69.366965	1340.313766
7.380000	-198.081703	-68.766066	1331.622314
7.390000	-197.236580	-68.726012	1321.983215
7.400000	-198.161163	-69.007701	1313.135880
7.410000	-199.609276	-68.646843	1306.025024
7.420000	-201.219200	-68.567998	1303.338074
7.430000	-200.534531	-67.885073	1300.489899
7.440000	-197.879562	-67.200552	1295.903534
7.450000	-193.976578	-66.315421	1289.420685
7.460000	-191.281631	-65.029370	1281.043640
7.470000	-190.918541	-65.069748	1273.615814
7.480000	-191.803810	-65.391824	1267.137222
7.490000	-191.721977	-65.835656	1260.973404
7.500000	-189.828934	-65.517087	1250.696442
7.510000	-186.005577	-64.875810	1237.575867
7.520000	-182.062431	-64.032012	1224.613953
7.530000	-179.043526	-62.503062	1206.752365
7.540000	-177.996956	-61.338461	1192.685547
7.550000	-175.823174	-61.259932	1179.091614
7.560000	-172.722763	-60.096609	1163.125687
7.570000	-167.330154	-58.532050	1144.471710
7.580000	-161.011093	-57.450431	1123.603973
7.590000	-153.605476	-55.726904	1097.046768
7.600000	-145.473854	-53.080733	1064.637299
7.610000	-134.565948	-49.554829	1021.319000
7.620000	-118.747116	-44.388703	961.869965
7.630000	-101.203331	-37.017694	888.501839
7.640000	-79.155422	-24.957141	799.792610
7.650000	-61.816999	-16.907344	710.764839
7.660000	-55.300898	-14.231604	630.439529
7.670000	-49.106886	-9.548102	560.863586
7.680000	-47.938154	-8.037594	502.360153
7.690000	-48.413729	-8.737375	458.878334
7.700000	-41.609415	-6.628833	423.137764
7.710000	-27.806127	-4.275162	399.878242
7.720000	-15.692394	-4.090445	379.621559
7.730000	-6.757165	-1.945342	371.851124
7.740000	10.551297	-0.533718	369.605965
7.750000	23.104866	-7.523845	350.629158
7.760000	20.354650	-15.371756	324.717087
7.770000	16.164977	-12.627016	306.388489
7.780000	16.320672	-5.386671	281.416309
7.790000	18.327049	0.766016	259.603455
7.800000	20.013546	4.145989	238.420483
7.810000	19.127766	2.661867	214.235466
7.820000	14.669574	-2.525250	197.163998
7.830000	9.649896	-9.444798	181.515793
7.840000	11.063630	-15.475716	171.080385
7.850000	17.021639	-16.242577	163.961937
7.860000	23.181780	-13.835489	161.110006
7.870000	22.538625	-9.941417	158.892359
7.880000	17.025883	-8.217255	158.735874
7.890000	11.633946	-9.945233	157.313753
7.900000	12.964994	-12.352640	156.523632
7.910000	17.994521	-11.789894	156.364199
7.920000	23.663975	-7.929839	157.153172
7.930000	26.557152	-2.703298	155.411041
7.940000	28.364623	0.916079	153.987450
7.950000	27.961378	2.360777	150.034718
7.960000	29.090125	-0.131201	143.868933
7.970000	32.634604	-4.105711	136.122089
7.980000	33.682701	-6.958545	127.904484
7.990000	34.123213	-7.799483	120.000336
8.000000	33.637621	-6.750295	113.677574
8.010000	31.021116	-5.541504	107.514084
8.020000	29.132317	-6.668903	102.614748
8.030000	27.124412	-8.763463	98.504229
8.040000	26.363170	-11.418542	96.135015
8.050000	27.893803	-12.584730	93.923924
8.060000	29.662816	-11.258939	93.132327
8.070000	31.028585	-8.002327	91.866693
8.080000	32.073117	-5.989795	93.445786
8.090000	30.463026	-5.105934	94.237381
8.100000	28.372943	-5.792039	96.926277
8.110000	29.661798	-6.114744	100.085773
8.120000	32.960426	-5.068100	103.246416
8.130000	35.855469	-2.695348	104.036045
8.140000	36.093851	0.280528	104.510246
8.150000	33.880079	1.206357	102.930664
8.160000	31.345750	0.243012	103.564137
8.170000	29.938637	-1.886837	99.771660
8.180000	29.457459	-3.575074	99.772314
8.190000	28.169792	-4.619492	98.508972
8.200000	27.927336	-4.536192	97.401138
8.210000	28.167924	-3.771875	96.296576
8.220000	26.236933	-4.616630	98.825878
8.230000	24.831009	-6.830415	98.037066
8.240000	25.236291	-9.484858	99.460007
8.250000	26.203400	-10.891404	97.719349
8.260000	27.410588	-10.371581	101.039097
8.270000	28.333806	-8.764099	100.249304
8.280000	28.493407	-7.155027	100.880812
8.290000	28.572358	-6.230153	98.036901
8.300000	27.526637	-7.434492	99.460003
8.310000	26.480747	-8.197855	98.354952
8.320000	26.158321	-8.517380	100.568991
8.330000	26.317581	-7.911394	99.779526
8.340000	25.953981	-6.583377	101.202463
8.350000	25.309978	-5.738305	100.885891
8.360000	24.949265	-6.061328	101.993071
8.370000	24.911828	-7.226561	100.571119
8.380000	24.792891	-8.191177	100.412341
8.390000	25.075163	-7.590280	100.730227
8.400000	25.598023	-6.946460	101.045159
8.410000	26.200513	-5.337707	97.567124
8.420000	26.482105	-4.654145	97.884354
8.430000	26.160189	-5.257269	97.093904
8.440000	25.598363	-5.660411	94.881993
8.450000	25.035008	-5.901724	93.618161
8.460000	24.752057	-5.539596	93.301425
8.470000	25.434009	-4.291381	93.776122
8.480000	25.875710	-3.567442	93.933590
8.490000	25.996684	-3.886966	93.301427
8.500000	25.433839	-5.293830	94.882652
8.510000	24.469107	-6.941372	93.618323
8.520000	24.831518	-7.584873	93.461350
8.530000	25.597004	-7.986744	94.884616
8.540000	26.320807	-7.663721	95.043066
8.550000	26.965490	-8.067499	95.200696
8.560000	27.569678	-8.629291	96.623962
8.570000	27.329260	-9.354184	93.936375
8.580000	27.370943	-9.676253	93.305852
8.590000	27.289783	-9.514106	93.621767
8.600000	26.885691	-8.788894	91.882097
8.610000	26.763867	-7.661813	93.463646
8.620000	27.004287	-6.777952	92.199158
8.630000	27.165585	-6.456838	91.883076
8.640000	27.005136	-6.576699	91.251409
8.650000	26.724052	-6.576381	92.199978
8.660000	26.040235	-5.409240	92.042512
8.670000	26.160529	-4.566075	92.358263
8.680000	27.247083	-4.002375	92.200468
8.690000	28.453932	-3.759790	92.518024
8.700000	29.862909	-3.478735	93.464955
8.710000	29.903234	-3.559491	94.729117
8.720000	29.138430	-4.002693	95.521363
8.730000	29.339204	-4.043389	97.418340
8.740000	29.056762	-4.404246	98.841438
8.750000	28.533052	-5.206714	102.160862
8.760000	28.452912	-7.053919	100.898341
8.770000	30.146881	-9.065814	103.426989
8.780000	31.154993	-10.272380	103.902829
8.790000	30.310215	-10.832263	104.061118
8.800000	29.223152	-10.628784	104.694916
8.810000	28.820077	-9.582140	105.012309
8.820000	30.187543	-8.056368	103.905780
8.830000	30.348842	-6.892725	103.905120
8.840000	29.825473	-7.294596	105.013453
8.850000	28.458345	-7.416047	104.381946
8.860000	27.894141	-7.174734	104.065047
8.870000	27.854157	-7.093661	102.959173
8.880000	28.215211	-6.529961	102.801378
8.890000	28.094237	-6.569385	101.694684
8.900000	27.853309	-6.327118	101.377785
8.910000	27.331127	-6.890817	102.958680
8.920000	27.371962	-7.293006	99.166040
8.930000	27.815700	-7.211296	100.273224
8.940000	27.453459	-7.210978	99.957309
8.950000	27.534616	-6.447297	97.428825
8.960000	27.855854	-5.482363	99.957309
8.970000	28.258420	-4.436991	99.800988
8.980000	27.372978	-4.558124	100.591273
8.990000	27.172036	-4.357826	100.432821
9.000000	27.856534	-4.076453	101.224085
9.010000	28.861421	-3.795398	100.590779
9.020000	29.022039	-3.474601	101.381717
9.030000	28.659287	-3.313408	103.436000
9.040000	28.739596	-3.673946	103.438125
9.050000	28.619473	-4.397567	104.070454
9.060000	28.579997	-5.080810	104.860246
9.070000	28.178281	-6.005367	106.600900
9.080000	28.339578	-6.847895	107.708251
9.090000	28.339748	-7.530502	109.130858
9.100000	27.978866	-8.375257	111.027835
9.110000	27.657289	-8.575874	110.554779
9.120000	27.295726	-9.099196	110.871513
9.130000	27.617812	-9.461642	110.713885
9.140000	27.778602	-9.704546	111.819265
9.150000	27.899066	-8.939911	111.503515
9.160000	27.254553	-8.898896	112.767835
9.170000	26.047195	-9.100150	113.242856
9.180000	25.685464	-9.340508	114.190934
9.190000	25.364395	-9.741107	112.612497
9.200000	25.001815	-10.143295	113.718860
9.210000	24.599419	-10.021208	113.402291
9.220000	23.632990	-9.899438	112.295761
9.230000	23.793609	-9.496932	112.296253
9.240000	24.035385	-9.498840	109.765969
9.250000	23.834102	-9.739835	109.451366
9.260000	24.599419	-9.699139	108.817727
9.270000	25.122788	-10.102281	106.921244
9.280000	25.806606	-9.298223	106.288754
9.290000	26.489407	-8.977427	105.496830
9.300000	26.167489	-8.815915	104.547443
9.310000	26.449759	-8.574284	106.445894
9.320000	27.013115	-8.816551	107.392659
9.330000	27.576809	-9.138301	106.761319
9.340000	27.214397	-9.017486	107.236504
9.350000	27.214397	-8.614662	109.133971
9.360000	26.851647	-8.936730	108.976014
9.370000	26.690687	-8.494800	108.343854
9.380000	26.409266	-8.775537	108.817560
9.390000	26.288633	-9.499476	108.502630
9.400000	25.966886	-9.538263	107.238307
9.410000	25.725618	-9.055001	107.395776
9.420000	25.885899	-9.054684	108.187695
9.430000	26.006021	-8.572376	108.977160
9.440000	26.087350	-8.491938	109.293242
9.450000	26.529901	-8.372712	110.083689
9.460000	26.731692	-8.491301	111.189888
9.470000	26.731861	-8.532316	112.456016
9.480000	26.811831	-7.928238	112.296414
9.490000	27.455665	-7.326387	111.664423
9.500000	27.414832	-7.125133	113.086539
9.510000	27.857212	-7.205571	113.244168
9.520000	27.615945	-7.687879	112.138460
9.530000	27.536484	-7.768953	111.664089
9.540000	26.852666	-8.131082	112.613646
9.550000	26.731523	-8.091022	111.506628
9.560000	26.530068	-8.131400	110.399933
9.570000	26.288294	-8.332017	110.083688
9.580000	26.450269	-8.694145	109.451859
9.590000	26.691707	-8.654085	111.981482
9.600000	27.255910	-9.539854	111.665403
9.610000	27.094953	-9.498840	112.613812
9.620000	27.095123	-9.258163	114.511114
9.630000	27.416868	-9.298223	115.301400
9.640000	27.819265	-9.579913	114.352008
9.650000	27.658476	-9.700094	115.143605
9.660000	26.692725	-10.061903	116.251112
9.670000	26.210020	-10.301627	117.673722
9.680000	26.289650	-10.139797	117.832007
9.690000	26.450610	-10.301627	117.041395
9.700000	26.290330	-10.220552	117.042218
9.710000	26.451119	-10.019618	116.725481
9.720000	26.411642	-9.899121	117.515600
9.730000	26.854363	-9.618066	117.041726
9.740000	26.572432	-9.618701	117.832664
9.750000	26.573112	-9.337011	117.516583
9.760000	26.894518	-9.095379	118.147762
9.770000	27.296745	-9.296315	116.568011
9.780000	26.974998	-9.456235	117.516748
9.790000	26.411983	-9.858743	117.200342
9.800000	26.411642	-10.019935	117.515763
9.810000	26.733221	-10.261249	120.046537
9.820000	27.054627	-9.658761	117.674541
9.830000	26.531428	-9.737609	116.251604
9.840000	27.094613	-9.455600	117.357642
9.850000	27.014304	-9.535720	117.041398
9.860000	26.692387	-9.657807	116.884583
9.870000	26.973979	-9.777350	117.516257
9.880000	26.612416	-9.335739	115.619606
9.890000	26.893331	-9.216195	114.039039
9.900000	27.134598	-8.935777	112.772099
9.910000	27.134427	-8.692873	112.455523
9.920000	26.893331	-8.654722	111.191530
9.930000	26.530919	-8.936094	109.768264
9.940000	26.571074	-8.694145	109.136429
9.950000	26.651213	-8.574602	109.294061
9.960000	26.691029	-8.573966	109.136755
9.970000	26.932467	-8.453150	109.451692
9.980000	26.691367	-8.090704	111.983287
9.990000	26.811831	-8.251579	113.404585
10.000000	27.134258	-7.969252	114.196177
10.010000	27.094104	-7.928874	117.357479
10.020000	27.617303	-7.848437	116.251439
10.030000	27.698122	-7.768317	118.781072
10.040000	27.899405	-7.968616	118.623929
10.050000	27.456854	-8.088160	119.888909
10.060000	27.175261	-8.290049	117.832335
10.070000	27.094782	-8.370487	119.413885
10.080000	27.134936	-8.370804	117.517732
10.090000	27.134936	-8.894444	116.094136
10.100000	26.611229	-8.611799	115.620258
10.110000	26.611058	-8.573012	114.355123
10.120000	26.288972	-8.291957	114.354464
10.130000	26.167830	-8.332971	112.614960
10.140000	26.248478	-8.252533	112.933001
10.150000	26.369620	-8.533906	111.983776
10.160000	26.410285	-8.494482	112.931526
10.170000	26.209172	-8.734841	112.773243
10.180000	26.209511	-8.453468	111.984103
10.190000	26.370469	-8.653767	114.039040
10.200000	26.813190	-8.815279	113.880262
10.210000	26.934505	-9.015896	114.354136
10.220000	27.135447	-8.694145	115.144915
10.230000	27.054968	-8.693509	114.037566
10.240000	26.932976	-8.131082	116.882784
10.250000	26.691029	-7.810602	116.093152
10.260000	26.570394	-7.328613	113.880264
10.270000	26.892480	-7.248493	112.455851
10.280000	27.093085	-7.046922	111.349979
10.290000	27.254043	-7.127996	111.191200
10.300000	26.973130	-7.006863	110.874789
10.310000	27.255062	-6.887637	108.820840
10.320000	27.375356	-7.249448	109.768424
10.330000	27.456345	-7.368990	108.662391
10.340000	27.457023	-7.370264	108.503778
10.350000	27.939559	-7.251038	109.609487
10.360000	27.939730	-7.531456	108.977652
10.370000	27.898895	-7.290461	107.870959
10.380000	27.899234	-7.010043	108.028590
10.390000	27.657457	-6.889863	107.079365
10.400000	27.616963	-6.649504	106.921574
10.410000	28.019020	-6.728352	106.920914
10.420000	27.938201	-6.689564	105.814055
10.430000	28.139823	-6.569066	107.078219
10.440000	28.300612	-6.689246	106.919601
10.450000	28.300442	-6.728988	105.971361
10.460000	28.662683	-6.770638	103.757977
10.470000	28.623379	-6.730578	105.339854
10.480000	28.180317	-6.891135	105.023280
10.490000	27.979204	-6.529325	104.550060
10.500000	27.899066	-6.650140	104.233161
10.510000	27.858741	-6.530279	104.074386
10.520000	27.858570	-6.329344	103.126143
10.530000	28.462419	-6.329662	103.284264
10.540000	28.543069	-6.047971	102.176587
10.550000	29.186223	-5.926519	103.125486
10.560000	29.427321	-5.885823	102.492996
10.570000	29.185545	-5.884869	104.547275
10.580000	28.622019	-6.126501	102.967036
10.590000	28.742824	-6.246998	102.335858
10.600000	27.777244	-6.128091	102.809732
10.610000	27.575790	-6.450159	101.702714
10.620000	27.455665	-6.289920	100.122146
10.630000	27.294707	-6.410417	97.908598
10.640000	27.133749	-6.290556	96.643781
10.650000	26.811831	-6.089620	97.117496
10.660000	26.772186	-6.171331	94.429747
10.670000	26.691707	-6.331888	94.111532
10.680000	26.973639	-5.890593	92.690562
10.690000	27.335711	-5.930336	93.005169
10.700000	27.376036	-5.288742	90.317582
10.710000	27.336051	-5.048065	90.316761
10.720000	27.657457	-4.766692	89.368356
10.730000	27.777922	-4.203311	87.787953
10.740000	27.939050	-4.083767	86.522321
10.750000	27.978695	-3.561081	87.312112
10.760000	27.898386	-3.721956	85.573257
10.770000	28.099159	-3.279072	82.727057
10.780000	28.139145	-3.479053	81.303629
10.790000	28.662005	-3.236786	80.197101
10.800000	28.341106	-3.076229	75.453761
10.810000	27.738106	-3.235832	74.663481
10.820000	27.217113	-3.277164	70.078588
10.830000	25.448271	-3.600505	66.759987
10.840000	23.077104	-3.482870	62.176242
10.850000	20.344038	-3.849450	59.805884
10.860000	20.063124	-3.810027	55.379608
10.870000	19.058239	-4.093626	52.374137
10.880000	18.616366	-3.815115	50.950379
10.890000	16.525435	-2.978629	46.682389
10.900000	16.327379	-3.503223	44.626965
10.910000	16.572042	-3.945153	45.101658
10.920000	16.492242	-3.828790	43.837335
10.930000	17.539319	-3.307058	44.784431
10.940000	18.546414	-3.389086	43.993819
10.950000	18.587247	-3.429145	43.993327
10.960000	19.431514	-3.391312	43.360839
10.970000	20.357281	-2.707750	42.410139
10.980000	21.121408	-2.591387	37.982551
10.990000	22.288781	-2.511904	35.452429
11.000000	22.772505	-2.433374	35.293488
11.010000	22.449909	-2.074426	31.182143
11.020000	22.529879	-1.152414	29.441486
11.030000	23.535105	-0.429747	29.599609
11.040000	23.977487	-0.309249	26.279369
11.050000	23.050533	0.291330	21.851288
11.060000	21.598850	1.174555	18.846636
11.070000	18.617045	1.781176	16.474636
11.080000	14.949385	2.068274	12.681996
11.090000	11.564504	2.435172	11.574646
11.100000	8.784320	2.679348	7.307801
11.110000	6.164926	1.958589	6.042330
11.120000	4.835066	0.916397	5.252210
11.130000	2.257185	0.355242	2.090419
11.140000	2.015748	0.595601	2.248213
11.150000	1.007465	0.679536	1.457437
11.160000	0.806012	0.959637	1.298988
11.170000	2.376970	0.918305	0.349926
11.180000	2.497604	0.356514	1.457438
11.190000	3.304264	0.673176	2.720451
11.200000	3.141947	0.274168	2.562000
11.210000	2.780555	0.638523	3.037186
11.220000	4.311357	0.794946	5.722153
11.230000	5.998874	1.158982	5.403779
11.240000	4.234104	2.382074	5.090811
11.250000	3.705471	-0.132473	3.982480
11.260000	1.451035	0.031265	1.615888
11.270000	0.081700	-0.207504	1.140701
11.280000	0.000032	-0.043131	0.192295
11.290000	-0.804420	0.720232	-1.385979
11.300000	0.322119	0.239196	1.614740
11.310000	-0.161096	0.600053	0.033681
11.320000	0.081021	0.077049	-1.229987
11.330000	0.201994	-0.244066	0.034992
11.340000	-0.441670	-0.284444	-0.596677
11.350000	0.161500	0.279574	0.034829
11.360000	-0.321885	0.440449	0.034173
11.370000	-0.120602	0.561265	-0.281089
11.380000	0.121006	0.239196	0.350581
11.390000	0.161670	0.359376	0.983235
11.400000	0.001390	0.279574	1.299151
11.410000	0.000032	0.199773	0.351400
11.420000	0.040187	0.560947	0.033846
11.430000	-0.120772	0.480827	0.667154
11.440000	0.040526	0.560947	-0.281744
11.450000	0.322458	0.439814	0.191640
11.460000	0.242149	0.118699	0.350581
11.470000	0.122194	-0.081918	-0.281417
11.480000	-0.119923	0.078639	0.824948
11.490000	0.081021	0.600689	0.035484
11.500000	-0.201081	0.761882	-0.280596
11.510000	0.000202	0.400708	-1.072028
11.520000	0.121175	0.240150	0.508867
11.530000	0.000711	-0.122614	1.616051
11.540000	0.080851	-0.042177	-0.596678
11.550000	0.040526	0.159395	-0.438392
11.560000	0.081360	0.480509	0.667317
11.570000	0.724175	0.318680	3.194652
11.580000	-2.695427	0.118063	2.725692
11.590000	3.783064	-0.321959	-0.757421
11.600000	1.247545	0.155578	2.879883
11.610000	-1.971624	0.034763	1.933771
11.620000	0.804824	0.237924	-1.863130
11.630000	-1.247481	0.035081	0.194262
11.640000	-0.362549	0.116791	1.774993
11.650000	1.207220	0.838822	-0.914724
11.660000	0.441564	0.236652	-0.754472
11.670000	0.925288	-0.444683	0.508705
11.680000	0.442243	0.638205	-2.178064
11.690000	-0.000308	0.639477	0.034337
11.700000	-1.288145	1.002559	0.826750
11.710000	-0.644481	1.084269	0.825604
11.720000	0.804824	0.761882	1.932459
11.730000	1.327175	1.119241	0.192951
11.740000	0.925458	0.400708	1.459404
11.750000	-0.603647	0.681763	0.666826
11.760000	-0.644141	0.599417	0.825768
11.770000	0.120666	0.599735	-1.387289
11.780000	-0.564002	0.558721	1.932623
11.790000	0.081021	-0.644982	-0.122311
11.800000	1.207560	-0.644346	-0.123293
11.810000	1.086586	0.077685	-1.071700
11.820000	-1.689522	-0.244384	2.408792
11.830000	0.201145	-0.360747	0.507885
11.840000	1.809880	-0.080328	0.033845
11.850000	-1.247141	0.118381	2.091893
11.860000	0.201824	-0.441821	0.983889
11.870000	0.804994	-0.122614	0.825112
11.880000	-0.321545	-0.763889	0.510014
11.890000	0.523402	-0.000527	1.141684
11.900000	0.080341	-0.082872	-1.229495
11.910000	-0.684296	-0.162038	0.353367
11.920000	0.120496	0.038897	0.508868
11.930000	1.407824	-0.002753	0.667809
11.940000	0.443432	-0.644982	-0.280597
11.950000	-0.080787	-0.201780	0.669447
11.960000	0.884794	0.160349	1.300790
11.970000	0.763990	0.400072	0.509850
11.980000	0.281115	0.762518	-0.122475
11.990000	0.442073	0.442358	1.300134
12.000000	0.241300	0.079911	2.406827
12.010000	0.402598	0.280210	0.353531
12.020000	0.523571	0.561265	-1.704026
12.030000	0.120666	-0.000209	-0.913742
12.040000	0.482568	0.360966	-0.438719
12.050000	0.241470	0.199773	-0.440194
12.060000	0.161160	0.116791	0.350909
12.070000	1.086756	-0.444365	0.666662
12.080000	0.120496	-0.282536	0.509195
12.090000	-0.282070	-0.363291	0.826914
12.100000	0.200975	-0.283490	0.510506
12.110000	0.201315	-0.201144	1.774010
12.120000	0.000202	-0.161720	1.142340
12.130000	0.361934	-0.685360	0.825440
12.140000	0.081021	-0.484743	0.825440
12.150000	-0.362379	0.159077	1.616379
12.160000	0.121175	-0.122296	0.984054
12.170000	-0.483183	0.359376	0.984381
12.180000	0.522892	0.401980	0.352056
12.190000	1.369197	1.122421	-0.440194
12.200000	0.643696	-0.166172	0.194426
12.210000	0.042224	0.837232	0.036139
12.220000	0.564066	0.518661	-0.756111
12.230000	-0.683787	-0.042495	-0.437900
12.240000	-0.041141	-0.601424	0.192623
12.250000	0.602862	1.406338	-0.124278
12.260000	0.080681	0.680172	-0.913578
12.270000	0.361764	0.483689	0.349435
12.280000	-0.403892	2.929247	0.352875
12.290000	-0.402194	-3.823066	-1.385323
12.300000	0.203692	0.594328	0.666172
12.310000	4.706962	-0.806493	1.774829
12.320000	-3.221513	-0.123568	-0.437572
12.330000	2.054035	0.837232	2.405025
12.340000	0.039847	0.439495	-1.860672
12.350000	-1.568888	0.194684	0.352056
12.360000	1.287869	-1.649976	0.350255
12.370000	-0.323413	1.241964	-0.122803
12.380000	-0.684296	-0.564862	0.826423
12.390000	1.730250	-0.606194	-0.755619
12.400000	0.000372	0.319316	0.194261
12.410000	-0.121281	0.321542	-0.123949
12.420000	-0.201930	-0.885659	0.825767
12.430000	-0.603817	-0.322595	0.825767
12.440000	1.086416	0.400072	1.774175
12.450000	1.931703	-0.243112	1.299479
12.460000	-0.121960	0.119653	1.300298
12.470000	0.361255	0.843910	0.193934
12.480000	-0.201590	0.800988	-0.438064
12.490000	0.281285	0.038261	-0.597661
12.500000	0.885303	-0.159494	1.457765
12.510000	0.321439	-0.041223	1.142995
12.520000	1.287699	0.238560	1.931477
12.530000	0.642847	0.842956	-0.756111
12.540000	-0.121451	0.522477	0.509523
12.550000	-0.644141	0.039533	-1.229167
12.560000	0.603541	-0.042177	1.142176
12.570000	0.282304	-0.163946	1.457929
12.580000	1.207390	-0.604922	0.983399
12.590000	0.804654	0.078957	1.458256
12.600000	-0.161266	1.000651	-0.755947
12.610000	0.200466	0.078957	-0.756111
12.620000	0.522383	0.440132	-0.913414
12.630000	-0.804420	-0.686314	-1.545248
12.640000	0.202164	-1.209954	0.825768
12.650000	1.448318	-0.082872	0.509195
12.660000	0.562877	-0.040586	1.299970
12.670000	0.040357	-0.041859	0.827734
12.680000	-0.081296	0.843274	1.299642
12.690000	-0.161266	0.199773	1.616051
12.700000	0.402937	-1.006475	0.510670
12.710000	0.804654	-0.603968	0.825603
12.720000	0.522892	0.319952	0.193606
12.730000	0.478493	-2.008924	-0.122966
12.740000	-5.034248	1.178381	0.666497
12.750000	2.170933	0.647109	-0.125588
12.760000	-1.486371	1.363734	3.197766
12.770000	-4.229965	-0.198282	-1.857070
12.780000	6.195742	-2.081412	4.140602
12.790000	-0.764605	-0.203052	0.984545
12.800000	1.206711	-0.043449	3.198912
12.810000	2.696170	0.363510	-2.655544
12.820000	-2.215099	1.040711	1.144305
12.830000	-0.401175	1.162162	-0.439047
12.840000	1.287190	-0.603014	-0.914069
12.850000	-0.964530	-0.685042	0.667809
12.860000	1.207220	-0.604922	-0.121328
12.870000	0.441394	0.518661	1.141849
12.880000	-0.362379	0.279892	0.983234
12.890000	0.604390	-0.805539	1.774829
12.900000	-0.443028	-0.162356	1.298824
12.910000	0.925458	-0.283808	0.508540
12.920000	0.884624	-0.483471	0.193770
12.930000	-0.201251	-0.163310	-0.912922
12.940000	1.086586	-0.322913	0.667317
12.950000	-0.201760	-1.969501	-0.121820
12.960000	0.403786	1.401249	-1.861492
12.970000	3.660563	0.484008	1.142504
12.980000	-4.908520	-1.447133	1.460059
12.990000	2.133155	0.639795	2.249196
13.000000	3.179215	2.451391	0.507229
13.010000	-3.983264	0.558403	0.987330
13.020000	1.088793	-0.926037	0.982907
13.030000	1.567933	2.093079	-1.862804
13.040000	-1.569567	1.481687	0.353203
13.050000	2.134344	-0.970231	1.930494
13.060000	-0.764775	0.885560	-0.596514
13.070000	-2.092767	1.246098	0.827078
13.080000	1.811069	-0.846235	1.456455
13.090000	-0.241915	1.602821	0.034009
13.100000	-0.602968	0.721822	0.353039
13.110000	1.329043	-1.328543	0.667810
13.120000	-0.845594	-0.125158	1.300954
13.130000	-0.160247	0.479873	0.826424
13.140000	0.362273	0.477965	0.035812
13.150000	-0.604666	-1.249060	0.035648
13.160000	-0.039783	-0.042495	0.826095
13.170000	0.001051	-0.204006	0.509195
13.180000	-0.040123	-0.847189	-0.122802
13.190000	0.563726	-0.081282	0.351892
13.200000	-0.523168	0.241104	0.984381
13.210000	-0.441840	-0.083826	-0.280105
13.220000	0.764839	0.038897	1.299807
13.230000	-0.603647	-1.685584	0.511161
13.240000	0.686228	1.240374	0.034009
13.250000	1.930344	0.803850	1.616871
13.260000	-3.702691	-0.484107	0.194425
13.270000	2.173140	1.565623	0.507394
13.280000	1.890869	1.690255	0.351237
13.290000	-2.453820	0.435997	0.985692
13.300000	1.208239	-0.805539	-0.755292
13.310000	1.164858	2.814792	-1.072683
13.320000	-1.368284	0.641067	1.301117
13.330000	0.724684	-0.165218	1.298168
13.340000	0.281624	1.406020	-0.914397
13.350000	-0.764096	0.361602	1.143159
13.360000	0.482907	-0.846553	0.984545
13.370000	0.040526	0.519933	-0.913578
13.380000	-1.127016	1.002241	1.300462
13.390000	0.643356	-1.208046	1.932460
13.400000	0.120326	-0.204642	1.615560
13.410000	-0.803911	0.278620	0.668629
13.420000	0.200636	-0.405577	-0.914232
13.430000	0.039847	-0.846235	-0.122147
13.440000	-0.079598	-0.243112	1.458584
13.450000	0.040526	-0.044085	1.141684
13.460000	-0.080447	-0.645300	0.508867
13.470000	-0.000308	-0.682816	2.090910
13.480000	0.081190	-0.202734	0.194426
13.490000	0.965952	0.678900	1.142340
13.500000	-0.642783	-1.325363	1.300791
13.510000	-0.925394	0.158759	0.035976
13.520000	2.132306	1.328126	0.666498
13.530000	-0.241406	1.123375	1.616379
13.540000	-0.321206	-0.039950	0.985364
13.550000	0.563386	1.568803	-0.121819
13.560000	0.281115	1.527153	0.034172
13.570000	0.282134	0.320588	0.826423
13.580000	-0.844066	1.043255	0.352384
13.590000	-1.288824	1.404112	-1.388272
13.600000	2.855940	1.206675	2.722416
13.610000	1.971688	2.046977	0.351564
13.620000	-1.004005	-0.084462	0.824457
13.630000	-1.689012	-1.813078	0.509687
13.640000	-2.011269	-0.040904	1.617854
13.650000	-0.000647	0.442994	-0.597824
13.660000	2.816804	0.680491	1.456782
13.670000	0.722817	0.520569	0.826095
13.680000	-1.045518	-0.282854	1.618181
13.690000	-0.481145	-1.169576	0.984054
13.700000	-1.689522	-2.134510	0.986348
13.710000	-0.802892	-0.806493	1.774829
13.720000	2.212276	0.241422	0.351237
13.730000	0.723156	0.481463	0.509523
13.740000	-0.522658	0.280210	0.985364
13.750000	1.207899	-0.121978	1.773846
13.760000	-0.441160	-0.603650	0.667482
13.770000	-2.493465	-1.687174	0.511489
13.780000	0.725194	0.963135	0.350090
13.790000	1.890699	2.772188	-0.914398
13.800000	0.279757	2.051111	0.826259
13.810000	-0.523847	1.166297	0.669611
13.820000	0.363632	-0.202098	1.299643
13.830000	0.163367	-0.446591	-0.121655
13.840000	0.322798	-0.486015	1.300790
13.850000	0.482568	0.080229	-0.439866
13.860000	0.200975	1.608545	-0.440194
13.870000	0.200126	-0.157904	0.510506
13.880000	0.482738	1.443217	2.248704
13.890000	1.811069	-0.241840	0.824293
13.900000	-2.171548	-1.085640	0.669939
13.910000	-0.079428	-0.322595	0.035812
13.920000	1.408843	0.803532	-0.597988
13.930000	-0.242255	1.766876	-0.121656
13.940000	0.442413	-0.078420	0.826423
13.950000	0.643356	0.243012	-0.122638
13.960000	-0.401006	-0.322277	0.510342
13.970000	0.202843	-0.565180	1.617035
13.980000	0.805503	0.280528	0.351237
13.990000	-1.488748	0.965362	1.301772
14.000000	1.688907	1.326854	1.616215
14.010000	0.040526	0.763472	0.349926
14.020000	-0.080108	-0.282218	0.826587
14.030000	0.725703	-0.765162	0.193770
14.040000	-0.643462	-0.564226	0.825276
14.050000	0.121175	-0.202098	-0.437736
14.060000	0.482228	0.278302	0.667646
14.070000	-0.120262	1.566895	0.984381
14.080000	0.763481	-0.161084	1.142504
14.090000	-0.040462	-0.965779	1.299971
14.100000	-0.319508	-0.445637	1.142668
14.110000	0.362104	-0.362337	1.299971
14.120000	0.281964	0.361284	-0.438063
14.130000	0.402089	0.681763	0.825440
14.140000	0.844469	0.080865	0.191804
14.150000	-0.241236	0.160667	0.668138
14.160000	-0.361191	-0.242794	0.352711
14.170000	-0.039274	-0.766434	0.351729
14.180000	-0.241745	0.280846	1.774501
14.190000	0.200126	0.642339	-0.597169
14.200000	0.522553	0.481463	0.194425
14.210000	0.482738	0.601643	1.459076
14.220000	0.000372	-0.001481	0.352384
14.230000	0.080851	-0.805539	1.300789
14.240000	0.282134	-0.323549	0.826751
14.250000	0.361934	0.721822	0.984217
14.260000	0.160142	0.521841	0.036959
14.270000	0.160142	0.682081	0.667973
14.280000	-0.000308	0.721504	0.667809
14.290000	0.321949	-0.525121	1.300626
14.300000	0.362273	-0.686314	0.825768
14.310000	0.201315	-0.121342	-0.754636
14.320000	-0.362549	0.359058	0.985037
14.330000	0.200466	0.360330	1.142831
14.340000	0.160311	0.440132	0.035157
14.350000	-0.161096	-0.083190	-0.122475
14.360000	0.161500	-0.645618	1.300299
14.370000	0.442922	-0.565498	0.035320
14.380000	-0.121111	-0.001799	1.616543
14.390000	0.120326	0.318680	1.142995
14.400000	0.280775	0.722458	0.350745
14.410000	-0.000138	0.239832	0.983890
14.420000	0.080341	-0.202416	0.509359
14.430000	0.080851	-0.645618	0.193770
14.440000	-0.040123	-0.082872	1.617034
14.450000	0.321949	0.118699	0.194098
14.460000	0.522553	0.682717	0.034992
14.470000	0.280775	0.882698	0.667482
14.480000	0.080172	0.158441	1.300298
14.490000	0.201315	-0.162674	0.193770
14.500000	0.160990	-0.484425	2.249360
14.510000	0.241639	-0.002753	0.352056
14.520000	0.442073	0.439177	-0.912431
14.530000	-0.041481	0.601007	1.142012
14.540000	-0.282239	0.358740	-0.280924
14.550000	0.282134	0.077685	-0.437900
14.560000	-1.166832	0.959001	0.510014
14.570000	1.689586	-0.999478	1.458585
14.580000	1.851903	-1.046852	0.826096
14.590000	-0.642443	0.475421	-0.596186
14.600000	-3.622042	-0.081600	-0.121164
14.610000	2.091133	0.202953	-0.280760
14.620000	2.252601	0.723730	-0.281579
14.630000	-0.562304	0.275758	-0.911940
14.640000	0.001221	-0.444047	0.827079
14.650000	-0.805100	-1.163534	2.407974
14.660000	-0.965379	0.682081	1.774993
14.670000	0.161670	0.519933	1.457437
14.680000	0.240791	0.642975	0.194917
14.690000	0.723836	-0.159176	0.193771
14.700000	0.122024	-1.086276	0.984546
14.710000	-0.642953	-0.125158	0.035812
14.720000	-0.320526	-0.040904	1.933443
14.730000	0.281115	-0.198918	2.090581
14.740000	-0.643632	0.241104	0.667973
14.750000	0.282473	0.319952	0.194098
14.760000	0.563896	0.320270	0.351565
14.770000	0.443601	-0.521940	0.825277
14.780000	-0.320866	0.081819	1.300954
14.790000	-0.804251	1.004467	0.984709
14.800000	0.362443	1.004785	-0.439867
14.810000	0.362273	1.247689	-0.438556
14.820000	-0.120602	0.643293	-0.122966
14.830000	0.161839	0.682399	0.983563
14.840000	0.081700	-0.641802	1.774502
14.850000	1.007465	1.845088	0.193606
14.860000	0.360575	2.492405	0.826259
14.870000	-2.696106	-1.405483	1.301773
14.880000	0.806522	0.036353	0.352548
14.890000	3.862864	1.768784	1.614577
14.900000	-2.253216	-0.766116	2.408629
14.910000	-0.239368	-2.373915	0.510179
14.920000	1.126062	0.925938	-0.913413
14.930000	-0.442519	1.164389	0.194425
14.940000	-0.039104	-2.293159	1.774502
14.950000	0.242319	-0.001163	0.035484
14.960000	-0.683107	0.482417	1.616870
14.970000	1.167405	-1.568584	2.090255
14.980000	-0.039953	0.155897	1.774010
14.990000	-0.281560	1.086177	-0.121491
